Time(s), V(V),Encoder,ADC
0,-6,0,1
0.005,-5.9058,0,1
0.01,-5.8115,0,1
0.015,-5.7174,-1,-256
0.02,-5.6233,-2,-256
0.025,-5.5293,-3,-256
0.03,-5.4354,-5,-220
0.035,-5.3416,-7,-220
0.04,-5.248,-9,-220
0.045,-5.1546,-12,-220
0.05,-5.0614,-15,-224
0.055,-4.9685,-18,-224
0.06,-4.8757,-21,-224
0.065,-4.7833,-25,-224
0.07,-4.6912,-29,-177
0.075,-4.5994,-33,-177
0.08,-4.5079,-38,-177
0.085,-4.4168,-43,-159
0.09,-4.3261,-48,-159
0.095,-4.2358,-53,-159
0.1,-4.146,-58,-159
0.105,-4.0566,-63,-152
0.11,-3.9676,-69,-152
0.115,-3.8792,-75,-152
0.12,-3.7913,-81,-127
0.125,-3.704,-87,-127
0.13,-3.6172,-93,-127
0.135,-3.531,-99,-127
0.14,-3.4454,-105,-124
0.145,-3.3604,-111,-124
0.15,-3.2761,-118,-124
0.155,-3.1925,-124,-120
0.16,-3.1096,-131,-120
0.165,-3.0273,-138,-120
0.17,-2.9458,-144,-120
0.175,-2.8651,-151,-112
0.18,-2.7851,-158,-112
0.185,-2.7059,-165,-112
0.19,-2.6276,-172,-112
0.195,-2.5501,-179,-112
0.2,-2.4734,-186,-112
0.205,-2.3976,-193,-112
0.21,-2.3227,-201,-96
0.215,-2.2486,-208,-96
0.22,-2.1756,-215,-96
0.225,-2.1034,-222,-63
0.23,-2.0322,-229,-63
0.235,-1.962,-237,-63
0.24,-1.8928,-244,-63
0.245,-1.8246,-251,-79
0.25,-1.7575,-259,-79
0.255,-1.6913,-266,-79
0.26,-1.6263,-273,-79
0.265,-1.5623,-281,-56
0.27,-1.4994,-288,-56
0.275,-1.4377,-295,-56
0.28,-1.377,-303,-63
0.285,-1.3175,-310,-63
0.29,-1.2592,-317,-63
0.295,-1.202,-324,-63
0.3,-1.146,-331,-60
0.305,-1.0912,-339,-60
0.31,-1.0376,-346,-60
0.315,-0.98525,-353,-60
0.32,-0.93413,-360,-60
0.325,-0.88426,-367,-60
0.33,-0.83564,-374,-60
0.335,-0.7883,-381,-56
0.34,-0.74225,-389,-56
0.345,-0.6975,-395,-56
0.35,-0.65405,-403,-35
0.355,-0.61192,-409,-35
0.36,-0.57112,-416,-35
0.365,-0.53167,-423,-35
0.37,-0.49356,-430,-31
0.375,-0.4568,-437,-31
0.38,-0.42142,-443,-31
0.385,-0.38741,-450,-30
0.39,-0.35479,-457,-30
0.395,-0.32356,-463,-30
0.4,-0.29373,-470,-30
0.405,-0.26531,-477,-24
0.41,-0.2383,-483,-24
0.415,-0.21272,-490,-24
0.42,-0.18856,-496,-15
0.425,-0.16584,-502,-15
0.43,-0.14455,-509,-15
0.435,-0.12471,-515,-15
0.44,-0.10632,-521,-7
0.445,-0.089388,-527,-7
0.45,-0.07391,-534,-7
0.455,-0.059895,-540,-7
0.46,-0.047345,-546,-7
0.465,-0.036263,-552,-7
0.47,-0.026653,-558,-7
0.475,-0.018517,-564,-1
0.48,-0.011857,-570,-1
0.485,-0.0066738,-576,-1
0.49,-0.0029693,-582,-1
0.495,-0.00074482,-587,0
0.5,-4.7684e-07,-593,0
0.505,-0.00073624,-599,0
0.51,-0.0029516,-605,1
0.515,-0.0066471,-610,1
0.52,-0.011821,-616,1
0.525,-0.018473,-621,1
0.53,-0.0266,-627,-1
0.535,-0.036201,-632,-1
0.54,-0.047274,-638,-1
0.545,-0.059814,-643,-1
0.55,-0.073821,-648,-1
0.555,-0.08929,-654,-1
0.56,-0.10622,-659,-1
0.565,-0.1246,-664,-7
0.57,-0.14443,-669,-7
0.575,-0.1657,-674,-7
0.58,-0.18842,-679,-12
0.585,-0.21257,-685,-12
0.59,-0.23814,-690,-12
0.595,-0.26514,-695,-12
0.6,-0.29356,-699,-15
0.605,-0.32338,-705,-15
0.61,-0.3546,-709,-15
0.615,-0.38721,-714,-28
0.62,-0.42121,-719,-28
0.625,-0.45659,-724,-28
0.63,-0.49333,-729,-28
0.635,-0.53143,-733,-31
0.64,-0.57088,-738,-31
0.645,-0.61167,-743,-31
0.65,-0.65379,-747,-31
0.655,-0.69723,-752,-39
0.66,-0.74198,-757,-39
0.665,-0.78802,-761,-39
0.67,-0.83535,-766,-48
0.675,-0.88396,-770,-48
0.68,-0.93383,-775,-48
0.685,-0.98494,-779,-48
0.69,-1.0373,-783,-60
0.695,-1.0909,-788,-60
0.7,-1.1457,-792,-60
0.705,-1.2017,-797,-63
0.71,-1.2588,-801,-63
0.715,-1.3172,-806,-63
0.72,-1.3767,-810,-63
0.725,-1.4373,-814,-78
0.73,-1.4991,-819,-78
0.735,-1.5619,-823,-78
0.74,-1.6259,-828,-96
0.745,-1.6909,-832,-96
0.75,-1.7571,-837,-96
0.755,-1.8242,-841,-96
0.76,-1.8924,-846,-92
0.765,-1.9616,-850,-92
0.77,-2.0318,-855,-92
0.775,-2.103,-860,-96
0.78,-2.1751,-864,-96
0.785,-2.2482,-869,-96
0.79,-2.3222,-874,-96
0.795,-2.3971,-879,-103
0.8,-2.4729,-883,-103
0.805,-2.5496,-888,-103
0.81,-2.6271,-893,-96
0.815,-2.7055,-898,-96
0.82,-2.7846,-903,-96
0.825,-2.8646,-909,-96
0.83,-2.9453,-914,-126
0.835,-3.0268,-919,-126
0.84,-3.1091,-925,-126
0.845,-3.192,-930,-126
0.85,-3.2756,-936,-127
0.855,-3.3599,-941,-127
0.86,-3.4449,-947,-127
0.865,-3.5305,-953,-124
0.87,-3.6167,-959,-124
0.875,-3.7034,-965,-124
0.88,-3.7908,-971,-124
0.885,-3.8787,-978,-127
0.89,-3.9671,-984,-127
0.895,-4.056,-991,-127
0.9,-4.1454,-997,-127
0.905,-4.2353,-1004,-127
0.91,-4.3256,-1011,-127
0.915,-4.4163,-1018,-127
0.92,-4.5074,-1025,-120
0.925,-4.5988,-1032,-120
0.93,-4.6906,-1040,-120
0.935,-4.7828,-1047,-124
0.94,-4.8752,-1055,-124
0.945,-4.9679,-1063,-124
0.95,-5.0609,-1071,-124
0.955,-5.1541,-1079,-113
0.96,-5.2475,-1087,-113
0.965,-5.341,-1095,-113
0.97,-5.4348,-1104,-99
0.975,-5.5287,-1112,-99
0.98,-5.6227,-1121,-99
0.985,-5.7168,-1130,-99
0.99,-5.811,-1139,-103
0.995,-5.9052,-1148,-103
1,-5.9994,-1157,-103
1.005,-6.0937,-1167,-96
1.01,-6.1879,-1176,-96
1.015,-6.2821,-1186,-96
1.02,-6.3762,-1196,-96
1.025,-6.4702,-1206,-103
1.03,-6.5641,-1216,-103
1.035,-6.6578,-1226,-103
1.04,-6.7514,-1236,-103
1.045,-6.8448,-1247,-92
1.05,-6.938,-1257,-92
1.055,-7.031,-1268,-92
1.06,-7.1237,-1279,-92
1.065,-7.2161,-1290,-92
1.07,-7.3083,-1301,-92
1.075,-7.4001,-1312,-92
1.08,-7.4915,-1323,-71
1.085,-7.5826,-1335,-71
1.09,-7.6734,-1346,-71
1.095,-7.7636,-1358,-71
1.1,-7.8535,-1370,-71
1.105,-7.9429,-1381,-71
1.11,-8.0318,-1393,-71
1.115,-8.1203,-1405,-60
1.12,-8.2082,-1417,-60
1.125,-8.2955,-1430,-60
1.13,-8.3823,-1442,-63
1.135,-8.4685,-1454,-63
1.14,-8.5541,-1467,-63
1.145,-8.639,-1479,-63
1.15,-8.7234,-1492,-30
1.155,-8.807,-1505,-30
1.16,-8.8899,-1517,-30
1.165,-8.9722,-1531,-48
1.17,-9.0537,-1543,-48
1.175,-9.1344,-1556,-48
1.18,-9.2144,-1570,-48
1.185,-9.2936,-1583,-48
1.19,-9.3719,-1596,-48
1.195,-9.4495,-1609,-48
1.2,-9.5262,-1623,-39
1.205,-9.602,-1636,-39
1.21,-9.6769,-1650,-39
1.215,-9.7509,-1663,-39
1.22,-9.824,-1677,-48
1.225,-9.8962,-1690,-48
1.23,-9.9673,-1704,-48
1.235,-10.038,-1718,-48
1.24,-10.107,-1732,-12
1.245,-10.175,-1746,-12
1.25,-10.242,-1759,-12
1.255,-10.308,-1773,-31
1.26,-10.373,-1787,-31
1.265,-10.437,-1801,-31
1.27,-10.5,-1815,-31
1.275,-10.562,-1829,-3
1.28,-10.623,-1843,-3
1.285,-10.682,-1858,-3
1.29,-10.74,-1872,-31
1.295,-10.798,-1886,-31
1.3,-10.854,-1900,-31
1.305,-10.908,-1915,-31
1.31,-10.962,-1929,-19
1.315,-11.014,-1943,-19
1.32,-11.066,-1958,-19
1.325,-11.115,-1972,-17
1.33,-11.164,-1986,-17
1.335,-11.211,-2001,-17
1.34,-11.257,-2015,-17
1.345,-11.302,-2030,-24
1.35,-11.346,-2044,-24
1.355,-11.388,-2059,-24
1.36,-11.429,-2074,-15
1.365,-11.468,-2088,-15
1.37,-11.506,-2103,-15
1.375,-11.543,-2117,-15
1.38,-11.578,-2132,-24
1.385,-11.612,-2147,-24
1.39,-11.645,-2162,-24
1.395,-11.676,-2176,-31
1.4,-11.706,-2191,-31
1.405,-11.735,-2206,-31
1.41,-11.762,-2221,-31
1.415,-11.787,-2236,-24
1.42,-11.811,-2251,-24
1.425,-11.834,-2266,-24
1.43,-11.855,-2281,-24
1.435,-11.875,-2295,-15
1.44,-11.894,-2311,-15
1.445,-11.911,-2325,-15
1.45,-11.926,-2341,-7
1.455,-11.94,-2356,-7
1.46,-11.953,-2371,-7
1.465,-11.964,-2386,-7
1.47,-11.973,-2401,-19
1.475,-11.981,-2416,-19
1.48,-11.988,-2431,-19
1.485,-11.993,-2447,-24
1.49,-11.997,-2462,-24
1.495,-11.999,-2477,-24
1.5,-12,-2492,-24
1.505,-11.999,-2508,-7
1.51,-11.997,-2523,-7
1.515,-11.993,-2538,-7
1.52,-11.988,-2554,-15
1.525,-11.982,-2569,-15
1.53,-11.973,-2585,-15
1.535,-11.964,-2600,-15
1.54,-11.953,-2615,-15
1.545,-11.94,-2631,-15
1.55,-11.926,-2646,-15
1.555,-11.911,-2662,-24
1.56,-11.894,-2677,-24
1.565,-11.876,-2693,-24
1.57,-11.856,-2708,-24
1.575,-11.834,-2724,-19
1.58,-11.812,-2739,-19
1.585,-11.788,-2755,-19
1.59,-11.762,-2770,-19
1.595,-11.735,-2786,-24
1.6,-11.707,-2801,-24
1.605,-11.677,-2817,-24
1.61,-11.646,-2833,-15
1.615,-11.613,-2848,-15
1.62,-11.579,-2864,-15
1.625,-11.544,-2879,-15
1.63,-11.507,-2895,-24
1.635,-11.469,-2911,-24
1.64,-11.429,-2926,-24
1.645,-11.389,-2942,-7
1.65,-11.346,-2957,-7
1.655,-11.303,-2973,-7
1.66,-11.258,-2989,-7
1.665,-11.212,-3004,-15
1.67,-11.165,-3020,-15
1.675,-11.116,-3035,-15
1.68,-11.066,-3051,-14
1.685,-11.015,-3067,-14
1.69,-10.963,-3082,-14
1.695,-10.909,-3098,-14
1.7,-10.855,-3113,-24
1.705,-10.799,-3129,-24
1.71,-10.742,-3145,-24
1.715,-10.683,-3160,-14
1.72,-10.624,-3176,-14
1.725,-10.563,-3191,-14
1.73,-10.501,-3207,-14
1.735,-10.438,-3223,-15
1.74,-10.374,-3239,-15
1.745,-10.309,-3254,-15
1.75,-10.243,-3270,-15
1.755,-10.176,-3285,-15
1.76,-10.108,-3301,-15
1.765,-10.039,-3317,-15
1.77,-9.9686,-3332,-15
1.775,-9.8975,-3348,-15
1.78,-9.8253,-3363,-15
1.785,-9.7523,-3379,-15
1.79,-9.6782,-3394,-15
1.795,-9.6033,-3410,-15
1.8,-9.5275,-3425,-15
1.805,-9.4509,-3441,-24
1.81,-9.3734,-3457,-24
1.815,-9.295,-3472,-24
1.82,-9.2158,-3488,-24
1.825,-9.1359,-3503,-15
1.83,-9.0551,-3519,-15
1.835,-8.9737,-3534,-15
1.84,-8.8914,-3550,-24
1.845,-8.8085,-3565,-24
1.85,-8.7249,-3581,-24
1.855,-8.6406,-3596,-24
1.86,-8.5556,-3612,-24
1.865,-8.4701,-3627,-24
1.87,-8.3839,-3643,-24
1.875,-8.2971,-3658,-28
1.88,-8.2097,-3674,-28
1.885,-8.1219,-3689,-28
1.89,-8.0334,-3705,-28
1.895,-7.9445,-3720,-15
1.9,-7.8551,-3735,-15
1.905,-7.7653,-3751,-15
1.91,-7.675,-3766,-19
1.915,-7.5843,-3782,-19
1.92,-7.4932,-3797,-19
1.925,-7.4017,-3812,-19
1.93,-7.3099,-3828,-15
1.935,-7.2178,-3843,-15
1.94,-7.1254,-3858,-15
1.945,-7.0327,-3874,-24
1.95,-6.9397,-3889,-24
1.955,-6.8465,-3904,-24
1.96,-6.7531,-3919,-24
1.965,-6.6595,-3935,-12
1.97,-6.5658,-3950,-12
1.975,-6.4719,-3965,-12
1.98,-6.3779,-3980,-12
1.985,-6.2838,-3995,-28
1.99,-6.1896,-4010,-28
1.995,-6.0954,-4025,-28
2,-6.0011,-4041,-24
2.005,-5.9069,-4056,-24
2.01,-5.8127,-4071,-24
2.015,-5.7185,-4086,-24
2.02,-5.6244,-4101,-24
2.025,-5.5304,-4116,-24
2.03,-5.4365,-4131,-24
2.035,-5.3427,-4146,-15
2.04,-5.2491,-4161,-15
2.045,-5.1557,-4175,-15
2.05,-5.0625,-4190,-15
2.055,-4.9696,-4205,-24
2.06,-4.8768,-4220,-24
2.065,-4.7844,-4235,-24
2.07,-4.6923,-4250,-28
2.075,-4.6004,-4264,-28
2.08,-4.509,-4279,-28
2.085,-4.4179,-4294,-28
2.09,-4.3272,-4309,-24
2.095,-4.2369,-4323,-24
2.1,-4.147,-4338,-24
2.105,-4.0576,-4352,-24
2.11,-3.9687,-4367,-24
2.115,-3.8802,-4382,-24
2.12,-3.7923,-4396,-24
2.125,-3.705,-4411,-30
2.13,-3.6182,-4425,-30
2.135,-3.532,-4440,-30
2.14,-3.4464,-4454,-30
2.145,-3.3614,-4469,-30
2.15,-3.2771,-4483,-30
2.155,-3.1934,-4497,-30
2.16,-3.1105,-4511,-24
2.165,-3.0283,-4526,-24
2.17,-2.9468,-4540,-24
2.175,-2.866,-4554,-24
2.18,-2.786,-4568,-30
2.185,-2.7068,-4583,-30
2.19,-2.6285,-4597,-30
2.195,-2.5509,-4611,-24
2.2,-2.4742,-4625,-24
2.205,-2.3984,-4639,-24
2.21,-2.3235,-4653,-24
2.215,-2.2495,-4667,-30
2.22,-2.1764,-4681,-30
2.225,-2.1042,-4694,-30
2.23,-2.033,-4708,-28
2.235,-1.9628,-4722,-28
2.24,-1.8936,-4736,-28
2.245,-1.8254,-4749,-28
2.25,-1.7582,-4763,-30
2.255,-1.6921,-4777,-30
2.26,-1.627,-4790,-30
2.265,-1.563,-4804,-24
2.27,-1.5001,-4817,-24
2.275,-1.4383,-4831,-24
2.28,-1.3777,-4844,-24
2.285,-1.3182,-4857,-24
2.29,-1.2598,-4871,-24
2.295,-1.2026,-4884,-24
2.3,-1.1466,-4897,-24
2.305,-1.0918,-4911,-24
2.31,-1.0382,-4924,-24
2.315,-0.98581,-4937,-24
2.32,-0.93467,-4950,-7
2.325,-0.88478,-4963,-7
2.33,-0.83615,-4976,-7
2.335,-0.7888,-4989,-15
2.34,-0.74273,-5001,-15
2.345,-0.69796,-5014,-15
2.35,-0.6545,-5027,-15
2.355,-0.61236,-5040,-15
2.36,-0.57154,-5052,-15
2.365,-0.53207,-5065,-15
2.37,-0.49394,-5077,-15
2.375,-0.45718,-5090,-15
2.38,-0.42178,-5102,-15
2.385,-0.38776,-5115,-15
2.39,-0.35512,-5127,-14
2.395,-0.32387,-5139,-14
2.4,-0.29403,-5152,-14
2.405,-0.26559,-5164,-14
2.41,-0.23857,-5176,-7
2.415,-0.21297,-5188,-7
2.42,-0.1888,-5200,-7
2.425,-0.16606,-5212,-7
2.43,-0.14476,-5224,-7
2.435,-0.12491,-5236,-7
2.44,-0.1065,-5248,-7
2.445,-0.089551,-5259,-3
2.45,-0.074059,-5271,-3
2.455,-0.060027,-5283,-3
2.46,-0.047462,-5294,-1
2.465,-0.036366,-5306,-1
2.47,-0.026742,-5317,-1
2.475,-0.01859,-5329,-1
2.48,-0.011915,-5340,0
2.485,-0.0067177,-5352,0
2.49,-0.0029988,-5363,0
2.495,-0.00075912,-5374,0
2.5,-4.7684e-07,-5385,0
2.505,-0.00072193,-5397,0
2.51,-0.002923,-5408,0
2.515,-0.0066042,-5419,1
2.52,-0.011764,-5430,1
2.525,-0.018401,-5441,1
2.53,-0.026515,-5451,-1
2.535,-0.036102,-5462,-1
2.54,-0.04716,-5473,-1
2.545,-0.059688,-5484,-1
2.55,-0.073681,-5494,-1
2.555,-0.089136,-5505,-1
2.56,-0.10605,-5516,-1
2.565,-0.12442,-5526,-1
2.57,-0.14423,-5537,-3
2.575,-0.1655,-5547,-3
2.58,-0.1882,-5557,-3
2.585,-0.21233,-5568,-7
2.59,-0.2379,-5578,-7
2.595,-0.26488,-5588,-7
2.6,-0.29329,-5598,-7
2.605,-0.32309,-5608,-7
2.61,-0.3543,-5619,-7
2.615,-0.3869,-5629,-7
2.62,-0.42089,-5639,-15
2.625,-0.45626,-5649,-15
2.63,-0.49299,-5658,-15
2.635,-0.53108,-5668,-15
2.64,-0.57052,-5678,-24
2.645,-0.6113,-5688,-24
2.65,-0.6534,-5697,-24
2.655,-0.69683,-5707,-28
2.66,-0.74157,-5717,-28
2.665,-0.7876,-5726,-28
2.67,-0.83492,-5736,-28
2.675,-0.88352,-5745,-31
2.68,-0.93338,-5755,-31
2.685,-0.98448,-5764,-31
2.69,-1.0368,-5774,-31
2.695,-1.0904,-5783,-31
2.7,-1.1452,-5792,-31
2.705,-1.2012,-5802,-31
2.71,-1.2583,-5811,-39
2.715,-1.3166,-5820,-39
2.72,-1.3761,-5829,-39
2.725,-1.4368,-5839,-48
2.73,-1.4985,-5848,-48
2.735,-1.5614,-5857,-48
2.74,-1.6253,-5866,-48
2.745,-1.6904,-5875,-56
2.75,-1.7565,-5884,-56
2.755,-1.8236,-5893,-56
2.76,-1.8918,-5903,-56
2.765,-1.961,-5912,-60
2.77,-2.0312,-5921,-60
2.775,-2.1024,-5930,-60
2.78,-2.1745,-5939,-56
2.785,-2.2476,-5948,-56
2.79,-2.3216,-5957,-56
2.795,-2.3965,-5966,-56
2.8,-2.4723,-5975,-63
2.805,-2.549,-5984,-63
2.81,-2.6265,-5993,-63
2.815,-2.7048,-6002,-76
2.82,-2.784,-6011,-76
2.825,-2.8639,-6021,-76
2.83,-2.9447,-6030,-76
2.835,-3.0262,-6039,-79
2.84,-3.1084,-6048,-79
2.845,-3.1913,-6057,-79
2.85,-3.2749,-6067,-88
2.855,-3.3592,-6076,-88
2.86,-3.4442,-6085,-88
2.865,-3.5298,-6095,-88
2.87,-3.616,-6104,-88
2.875,-3.7027,-6114,-88
2.88,-3.7901,-6123,-88
2.885,-3.878,-6133,-88
2.89,-3.9664,-6143,-88
2.895,-4.0553,-6152,-88
2.9,-4.1447,-6162,-88
2.905,-4.2346,-6172,-92
2.91,-4.3248,-6182,-92
2.915,-4.4155,-6192,-92
2.92,-4.5066,-6202,-92
2.925,-4.5981,-6212,-92
2.93,-4.6899,-6222,-92
2.935,-4.782,-6233,-92
2.94,-4.8745,-6243,-88
2.945,-4.9672,-6253,-88
2.95,-5.0601,-6264,-88
2.955,-5.1533,-6274,-88
2.96,-5.2467,-6285,-88
2.965,-5.3403,-6296,-88
2.97,-5.4341,-6307,-88
2.975,-5.528,-6317,-63
2.98,-5.622,-6328,-63
2.985,-5.7161,-6339,-63
2.99,-5.8103,-6351,-63
2.995,-5.9045,-6362,-78
3,-5.9987,-6373,-78
3.005,-6.093,-6384,-78
3.01,-6.1872,-6396,-71
3.015,-6.2814,-6407,-71
3.02,-6.3755,-6419,-71
3.025,-6.4695,-6431,-71
3.03,-6.5634,-6443,-60
3.035,-6.6571,-6454,-60
3.04,-6.7507,-6466,-60
3.045,-6.8441,-6478,-62
3.05,-6.9373,-6490,-62
3.055,-7.0303,-6503,-62
3.06,-7.123,-6515,-62
3.065,-7.2155,-6527,-56
3.07,-7.3076,-6539,-56
3.075,-7.3994,-6552,-56
3.08,-7.4909,-6565,-48
3.085,-7.582,-6577,-48
3.09,-7.6727,-6590,-48
3.095,-7.763,-6602,-48
3.1,-7.8529,-6615,-51
3.105,-7.9423,-6628,-51
3.11,-8.0312,-6641,-51
3.115,-8.1197,-6654,-39
3.12,-8.2076,-6667,-39
3.125,-8.2949,-6680,-39
3.13,-8.3817,-6693,-39
3.135,-8.4679,-6707,-49
3.14,-8.5535,-6720,-49
3.145,-8.6385,-6733,-49
3.15,-8.7228,-6747,-49
3.155,-8.8064,-6760,-31
3.16,-8.8894,-6774,-31
3.165,-8.9716,-6787,-31
3.17,-9.0531,-6801,-39
3.175,-9.1339,-6815,-39
3.18,-9.2139,-6829,-39
3.185,-9.2931,-6843,-39
3.19,-9.3714,-6857,-30
3.195,-9.449,-6871,-30
3.2,-9.5257,-6885,-30
3.205,-9.6015,-6899,-31
3.21,-9.6764,-6913,-31
3.215,-9.7504,-6927,-31
3.22,-9.8235,-6941,-31
3.225,-9.8957,-6955,-7
3.23,-9.9669,-6969,-7
3.235,-10.037,-6984,-7
3.24,-10.106,-6998,-31
3.245,-10.175,-7012,-31
3.25,-10.242,-7027,-31
3.255,-10.308,-7041,-31
3.26,-10.373,-7056,-31
3.265,-10.437,-7070,-31
3.27,-10.5,-7085,-31
3.275,-10.562,-7099,-15
3.28,-10.622,-7114,-15
3.285,-10.682,-7128,-15
3.29,-10.74,-7143,-15
3.295,-10.797,-7158,-30
3.3,-10.853,-7172,-30
3.305,-10.908,-7187,-30
3.31,-10.962,-7202,-28
3.315,-11.014,-7217,-28
3.32,-11.065,-7231,-28
3.325,-11.115,-7246,-28
3.33,-11.164,-7261,-15
3.335,-11.211,-7276,-15
3.34,-11.257,-7291,-15
3.345,-11.302,-7305,-15
3.35,-11.345,-7320,-1
3.355,-11.388,-7335,-1
3.36,-11.428,-7350,-1
3.365,-11.468,-7365,-15
3.37,-11.506,-7380,-15
3.375,-11.543,-7395,-15
3.38,-11.578,-7410,-15
3.385,-11.612,-7425,-24
3.39,-11.645,-7441,-24
3.395,-11.676,-7456,-24
3.4,-11.706,-7471,-24
3.405,-11.734,-7486,-24
3.41,-11.761,-7501,-24
3.415,-11.787,-7516,-24
3.42,-11.811,-7532,-24
3.425,-11.834,-7547,-24
3.43,-11.855,-7562,-24
3.435,-11.875,-7577,-15
3.44,-11.893,-7593,-15
3.445,-11.91,-7608,-15
3.45,-11.926,-7623,-15
3.455,-11.94,-7638,-15
3.46,-11.953,-7654,-15
3.465,-11.964,-7669,-15
3.47,-11.973,-7685,-15
3.475,-11.981,-7700,-15
3.48,-11.988,-7715,-15
3.485,-11.993,-7731,-15
3.49,-11.997,-7746,-12
3.495,-11.999,-7761,-12
3.5,-12,-7777,-12
3.505,-11.999,-7792,-7
3.51,-11.997,-7808,-7
3.515,-11.993,-7823,-7
3.52,-11.988,-7839,-7
3.525,-11.982,-7855,-12
3.53,-11.973,-7870,-12
3.535,-11.964,-7886,-12
3.54,-11.953,-7901,-12
3.545,-11.94,-7917,-7
3.55,-11.926,-7932,-7
3.555,-11.911,-7948,-7
3.56,-11.894,-7963,-12
3.565,-11.876,-7979,-12
3.57,-11.856,-7995,-12
3.575,-11.835,-8010,-12
3.58,-11.812,-8026,-7
3.585,-11.788,-8041,-7
3.59,-11.762,-8057,-7
3.595,-11.735,-8072,-15
3.6,-11.707,-8088,-15
3.605,-11.677,-8104,-15
3.61,-11.646,-8119,-15
3.615,-11.613,-8135,-15
3.62,-11.579,-8151,-15
3.625,-11.544,-8166,-15
3.63,-11.507,-8182,-15
3.635,-11.469,-8198,-15
3.64,-11.43,-8213,-15
3.645,-11.389,-8229,-15
3.65,-11.347,-8244,-15
3.655,-11.303,-8260,-15
3.66,-11.258,-8276,-15
3.665,-11.212,-8291,-15
3.67,-11.165,-8307,-15
3.675,-11.117,-8323,-15
3.68,-11.067,-8338,-15
3.685,-11.016,-8354,-15
3.69,-10.963,-8370,-15
3.695,-10.91,-8385,-15
3.7,-10.855,-8401,-15
3.705,-10.799,-8417,-15
3.71,-10.742,-8432,-15
3.715,-10.683,-8448,-15
3.72,-10.624,-8463,-15
3.725,-10.563,-8479,-15
3.73,-10.502,-8495,-15
3.735,-10.439,-8510,-15
3.74,-10.375,-8526,-15
3.745,-10.31,-8542,-15
3.75,-10.244,-8557,-15
3.755,-10.176,-8573,-17
3.76,-10.108,-8588,-17
3.765,-10.039,-8604,-17
3.77,-9.9689,-8619,-17
3.775,-9.8977,-8635,-24
3.78,-9.8256,-8651,-24
3.785,-9.7525,-8666,-24
3.79,-9.6785,-8682,-7
3.795,-9.6036,-8697,-7
3.8,-9.5278,-8713,-7
3.805,-9.4511,-8728,-7
3.81,-9.3736,-8744,-15
3.815,-9.2953,-8759,-15
3.82,-9.2161,-8775,-15
3.825,-9.1362,-8791,-12
3.83,-9.0554,-8806,-12
3.835,-8.9739,-8821,-12
3.84,-8.8917,-8837,-12
3.845,-8.8088,-8853,-15
3.85,-8.7252,-8868,-15
3.855,-8.6409,-8883,-15
3.86,-8.5559,-8899,-15
3.865,-8.4703,-8914,-15
3.87,-8.3842,-8930,-15
3.875,-8.2974,-8945,-15
3.88,-8.21,-8961,-24
3.885,-8.1221,-8976,-24
3.89,-8.0337,-8991,-24
3.895,-7.9448,-9007,-24
3.9,-7.8554,-9022,-24
3.905,-7.7656,-9038,-24
3.91,-7.6753,-9053,-24
3.915,-7.5846,-9068,-24
3.92,-7.4935,-9084,-24
3.925,-7.402,-9099,-24
3.93,-7.3102,-9114,-24
3.935,-7.2181,-9129,-24
3.94,-7.1256,-9145,-24
3.945,-7.0329,-9160,-24
3.95,-6.94,-9175,-24
3.955,-6.8468,-9191,-24
3.96,-6.7534,-9206,-24
3.965,-6.6598,-9221,-24
3.97,-6.566,-9236,-24
3.975,-6.4721,-9251,-24
3.98,-6.3781,-9267,-24
3.985,-6.284,-9282,-14
3.99,-6.1899,-9297,-14
3.995,-6.0956,-9312,-14
4,-6.0014,-9327,-14
4.005,-5.9072,-9342,-7
4.01,-5.8129,-9357,-7
4.015,-5.7188,-9372,-7
4.02,-5.6247,-9387,-28
4.025,-5.5306,-9402,-28
4.03,-5.4367,-9417,-28
4.035,-5.343,-9432,-28
4.04,-5.2494,-9447,-28
4.045,-5.156,-9462,-28
4.05,-5.0628,-9477,-28
4.055,-4.9698,-9492,-24
4.06,-4.8771,-9507,-24
4.065,-4.7847,-9521,-24
4.07,-4.6925,-9536,-24
4.075,-4.6007,-9551,-24
4.08,-4.5092,-9566,-24
4.085,-4.4181,-9581,-24
4.09,-4.3274,-9595,-24
4.095,-4.2371,-9610,-15
4.1,-4.1472,-9625,-15
4.105,-4.0578,-9639,-15
4.11,-3.9689,-9654,-24
4.115,-3.8805,-9669,-24
4.12,-3.7926,-9683,-24
4.125,-3.7052,-9697,-24
4.13,-3.6184,-9712,-28
4.135,-3.5322,-9727,-28
4.14,-3.4466,-9741,-28
4.145,-3.3616,-9755,-24
4.15,-3.2773,-9770,-24
4.155,-3.1937,-9784,-24
4.16,-3.1107,-9799,-24
4.165,-3.0285,-9813,-30
4.17,-2.947,-9827,-30
4.175,-2.8662,-9841,-30
4.18,-2.7862,-9855,-30
4.185,-2.7071,-9870,-30
4.19,-2.6287,-9884,-30
4.195,-2.5511,-9898,-30
4.2,-2.4744,-9912,-31
4.205,-2.3986,-9926,-31
4.21,-2.3237,-9940,-31
4.215,-2.2497,-9954,-30
4.22,-2.1766,-9968,-30
4.225,-2.1044,-9982,-30
4.23,-2.0332,-9996,-30
4.235,-1.963,-10009,-24
4.24,-1.8938,-10023,-24
4.245,-1.8255,-10037,-24
4.25,-1.7584,-10051,-28
4.255,-1.6922,-10064,-28
4.26,-1.6272,-10078,-28
4.265,-1.5632,-10091,-28
4.2701,-1.5003,-10105,-28
4.2751,-1.4385,-10118,-28
4.2801,-1.3778,-10132,-28
4.2851,-1.3183,-10145,-28
4.2901,-1.2599,-10159,-24
4.2951,-1.2028,-10172,-24
4.3001,-1.1467,-10185,-24
4.3051,-1.0919,-10199,-24
4.3101,-1.0383,-10212,-24
4.3151,-0.98595,-10225,-24
4.3201,-0.9348,-10238,-24
4.3251,-0.88491,-10251,-15
4.3301,-0.83628,-10264,-15
4.3351,-0.78892,-10277,-15
4.3401,-0.74285,-10290,-15
4.3451,-0.69808,-10303,-15
4.3501,-0.65462,-10315,-15
4.3551,-0.61247,-10328,-15
4.3601,-0.57165,-10341,-15
4.3651,-0.53217,-10353,-15
4.3701,-0.49405,-10366,-15
4.3751,-0.45727,-10379,1
4.3801,-0.42187,-10391,1
4.3851,-0.38785,-10403,1
4.3901,-0.35521,-10416,1
4.3951,-0.32396,-10428,0
4.4001,-0.29411,-10441,0
4.4051,-0.26567,-10453,0
4.4101,-0.23864,-10465,-15
4.4151,-0.21304,-10477,-15
4.4201,-0.18886,-10489,-15
4.4251,-0.16612,-10501,-15
4.4301,-0.14482,-10513,-3
4.4351,-0.12496,-10525,-3
4.4401,-0.10655,-10537,-3
4.4451,-0.089594,-10549,-3
4.4501,-0.074098,-10560,-3
4.4551,-0.060063,-10572,-3
4.4601,-0.047494,-10584,-3
4.4651,-0.036394,-10595,-1
4.4701,-0.026765,-10607,-1
4.4751,-0.01861,-10618,-1
4.4801,-0.011931,-10630,-1
4.4851,-0.0067301,-10641,0
4.4901,-0.0030065,-10653,0
4.4951,-0.00076389,-10664,0
4.5001,0,-10675,1
4.5051,-0.00071716,-10686,1
4.5101,-0.0029149,-10697,1
4.5151,-0.0065923,-10708,1
4.5201,-0.011748,-10719,1
4.5251,-0.018381,-10730,1
4.5301,-0.026491,-10741,1
4.5351,-0.036074,-10752,0
4.5401,-0.047129,-10763,0
4.5451,-0.059652,-10774,0
4.5501,-0.073641,-10784,0
4.5551,-0.089093,-10795,-1
4.5601,-0.106,-10806,-1
4.5651,-0.12437,-10816,-1
4.5701,-0.14418,-10827,-3
4.5751,-0.16544,-10837,-3
4.5801,-0.18814,-10848,-3
4.5851,-0.21227,-10858,-3
4.5901,-0.23783,-10868,-7
4.5951,-0.26481,-10879,-7
4.6001,-0.29321,-10889,-7
4.6051,-0.32301,-10899,-7
4.6101,-0.35422,-10909,-7
4.6151,-0.38682,-10919,-7
4.6201,-0.4208,-10929,-7
4.6251,-0.45616,-10939,-15
4.6301,-0.49289,-10949,-15
4.6351,-0.53097,-10959,-15
4.6401,-0.57041,-10969,-24
4.6451,-0.61119,-10979,-24
4.6501,-0.65329,-10989,-24
4.6551,-0.69671,-10998,-24
4.6601,-0.74145,-11008,-28
4.6651,-0.78748,-11018,-28
4.6701,-0.83479,-11027,-28
4.6751,-0.88339,-11037,-28
4.6801,-0.93324,-11046,-31
4.6851,-0.98434,-11056,-31
4.6901,-1.0367,-11065,-31
4.6951,-1.0902,-11075,-31
4.7001,-1.145,-11084,-31
4.7051,-1.201,-11093,-31
4.7101,-1.2582,-11103,-31
4.7151,-1.3165,-11112,-39
4.7201,-1.376,-11121,-39
4.7251,-1.4366,-11131,-39
4.7301,-1.4984,-11140,-48
4.7351,-1.5612,-11149,-48
4.7401,-1.6252,-11158,-48
4.7451,-1.6902,-11167,-48
4.7501,-1.7563,-11177,-56
4.7551,-1.8235,-11186,-56
4.7601,-1.8916,-11195,-56
4.7651,-1.9608,-11204,-60
4.7701,-2.031,-11213,-60
4.7751,-2.1022,-11222,-60
4.7801,-2.1743,-11231,-60
4.7851,-2.2474,-11240,-71
4.7901,-2.3214,-11249,-71
4.7951,-2.3963,-11259,-71
4.8001,-2.4721,-11268,-71
4.8051,-2.5487,-11277,-71
4.8101,-2.6263,-11286,-71
4.8151,-2.7046,-11295,-71
4.8201,-2.7838,-11305,-63
4.8251,-2.8637,-11314,-63
4.8301,-2.9445,-11323,-63
4.8351,-3.0259,-11332,-63
4.8401,-3.1082,-11342,-63
4.8451,-3.1911,-11351,-63
4.8501,-3.2747,-11360,-63
4.8551,-3.359,-11370,-71
4.8601,-3.444,-11379,-71
4.8651,-3.5295,-11389,-71
4.8701,-3.6157,-11398,-71
4.8751,-3.7025,-11408,-79
4.8801,-3.7899,-11417,-79
4.8851,-3.8777,-11427,-79
4.8901,-3.9662,-11437,-88
4.8951,-4.0551,-11447,-88
4.9001,-4.1445,-11457,-88
4.9051,-4.2343,-11466,-88
4.9101,-4.3246,-11476,-92
4.9151,-4.4153,-11486,-92
4.9201,-4.5064,-11497,-92
4.9251,-4.5979,-11507,-88
4.9301,-4.6897,-11517,-88
4.9351,-4.7818,-11527,-88
4.9401,-4.8742,-11538,-88
4.9451,-4.9669,-11548,-83
4.9501,-5.0599,-11559,-83
4.9551,-5.1531,-11569,-83
4.9601,-5.2465,-11580,-88
4.9651,-5.3401,-11591,-88
4.9701,-5.4338,-11601,-88
4.9751,-5.5277,-11613,-88
4.9801,-5.6217,-11623,-71
4.9851,-5.7158,-11635,-71
4.9901,-5.81,-11646,-71
4.9951,-5.9042,-11657,-63
5.0001,-5.9985,-11668,-63
5.0051,-6.0927,-11680,-63
5.0101,-6.1869,-11691,-63
5.0151,-6.2811,-11703,-56
5.0201,-6.3752,-11714,-56
5.0251,-6.4692,-11726,-56
5.0301,-6.5631,-11738,-63
5.0351,-6.6569,-11750,-63
5.0401,-6.7505,-11762,-63
5.0451,-6.8439,-11774,-63
5.0501,-6.9371,-11786,-56
5.0551,-7.0301,-11798,-56
5.0601,-7.1228,-11810,-56
5.0651,-7.2152,-11823,-56
5.0701,-7.3074,-11835,-46
5.0751,-7.3992,-11848,-46
5.0801,-7.4907,-11860,-46
5.0851,-7.5818,-11873,-48
5.0901,-7.6725,-11885,-48
5.0951,-7.7628,-11898,-48
5.1001,-7.8526,-11911,-48
5.1051,-7.9421,-11924,-56
5.1101,-8.031,-11937,-56
5.1151,-8.1194,-11950,-56
5.1201,-8.2073,-11963,-48
5.1251,-8.2947,-11976,-48
5.1301,-8.3815,-11990,-48
5.1351,-8.4677,-12003,-48
5.1401,-8.5533,-12016,-39
5.1451,-8.6383,-12030,-39
5.1501,-8.7226,-12043,-39
5.1551,-8.8062,-12057,-46
5.1601,-8.8892,-12070,-46
5.1651,-8.9714,-12084,-46
5.1701,-9.0529,-12098,-46
5.1751,-9.1337,-12111,-28
5.1801,-9.2137,-12125,-28
5.1851,-9.2928,-12139,-28
5.1901,-9.3712,-12153,-31
5.1951,-9.4488,-12167,-31
5.2001,-9.5255,-12181,-31
5.2051,-9.6013,-12195,-31
5.2101,-9.6762,-12209,-31
5.2151,-9.7502,-12223,-31
5.2201,-9.8233,-12238,-31
5.2251,-9.8955,-12252,-31
5.2301,-9.9667,-12266,-31
5.2351,-10.037,-12281,-31
5.2401,-10.106,-12295,-31
5.2451,-10.174,-12309,-24
5.2501,-10.242,-12324,-24
5.2551,-10.308,-12338,-24
5.2601,-10.373,-12353,-24
5.2651,-10.437,-12367,-30
5.2701,-10.5,-12382,-30
5.2751,-10.561,-12396,-30
5.2801,-10.622,-12411,-30
5.2851,-10.682,-12425,-30
5.2901,-10.74,-12440,-30
5.2951,-10.797,-12455,-30
5.3001,-10.853,-12470,-24
5.3051,-10.908,-12484,-24
5.3101,-10.962,-12499,-24
5.3151,-11.014,-12514,0
5.3201,-11.065,-12529,0
5.3251,-11.115,-12544,0
5.3301,-11.164,-12558,0
5.3351,-11.211,-12573,-28
5.3401,-11.257,-12588,-28
5.3451,-11.302,-12603,-28
5.3501,-11.345,-12618,-28
5.3551,-11.387,-12633,-28
5.3601,-11.428,-12648,-28
5.3651,-11.468,-12663,-28
5.3701,-11.506,-12678,-24
5.3751,-11.543,-12693,-24
5.3801,-11.578,-12709,-24
5.3851,-11.612,-12724,-28
5.3901,-11.645,-12739,-28
5.3951,-11.676,-12754,-28
5.4001,-11.706,-12769,-28
5.4051,-11.734,-12784,-15
5.4101,-11.761,-12800,-15
5.4151,-11.787,-12815,-15
5.4201,-11.811,-12830,-12
5.4251,-11.834,-12845,-12
5.4301,-11.855,-12861,-12
5.4351,-11.875,-12876,-12
5.4401,-11.893,-12891,-7
5.4451,-11.91,-12907,-7
5.4501,-11.926,-12922,-7
5.4551,-11.94,-12938,-7
5.4601,-11.952,-12953,-3
5.4651,-11.964,-12969,-3
5.4701,-11.973,-12984,-3
5.4751,-11.981,-12999,-1
5.4801,-11.988,-13015,-1
5.4851,-11.993,-13030,-1
5.4901,-11.997,-13046,-1
5.4951,-11.999,-13061,1
5.5001,-12,-13077,1
5.5051,-11.999,-13092,1
5.5101,-11.997,-13108,-7
5.5151,-11.993,-13124,-7
5.5201,-11.988,-13139,-7
5.5251,-11.982,-13155,-7
5.5301,-11.974,-13170,-1
5.5351,-11.964,-13186,-1
5.5401,-11.953,-13201,-1
5.5451,-11.94,-13217,-15
5.5501,-11.926,-13233,-15
5.5551,-11.911,-13249,-15
5.5601,-11.894,-13264,-15
5.5651,-11.876,-13280,-7
5.5701,-11.856,-13296,-7
5.5751,-11.835,-13311,-7
5.5801,-11.812,-13327,-19
5.5851,-11.788,-13343,-19
5.5901,-11.762,-13358,-19
5.5951,-11.735,-13374,-19
5.6001,-11.707,-13390,-7
5.6051,-11.677,-13405,-7
5.6101,-11.646,-13421,-7
5.6151,-11.613,-13437,-7
5.6201,-11.579,-13453,-15
5.6251,-11.544,-13469,-15
5.6301,-11.507,-13484,-15
5.6351,-11.469,-13500,-15
5.6401,-11.43,-13516,-15
5.6451,-11.389,-13532,-15
5.6501,-11.347,-13547,-15
5.6551,-11.303,-13563,-15
5.6601,-11.259,-13579,-15
5.6651,-11.213,-13595,-15
5.6701,-11.165,-13611,-15
5.6751,-11.117,-13627,-15
5.6801,-11.067,-13642,-15
5.6851,-11.016,-13658,-15
5.6901,-10.963,-13674,-15
5.6951,-10.91,-13690,-15
5.7001,-10.855,-13705,-15
5.7051,-10.799,-13721,-15
5.7101,-10.742,-13737,-15
5.7151,-10.684,-13753,-15
5.7201,-10.624,-13769,-15
5.7251,-10.563,-13784,-15
5.7301,-10.502,-13800,-15
5.7351,-10.439,-13816,-15
5.7401,-10.375,-13832,-17
5.7451,-10.31,-13847,-17
5.7501,-10.244,-13863,-17
5.7551,-10.177,-13879,-17
5.7601,-10.108,-13895,1
5.7651,-10.039,-13910,1
5.7701,-9.9691,-13926,1
5.7751,-9.8979,-13942,-15
5.7801,-9.8258,-13957,-15
5.7851,-9.7527,-13973,-15
5.7901,-9.6787,-13989,-15
5.7951,-9.6038,-14005,-7
5.8001,-9.528,-14020,-7
5.8051,-9.4514,-14036,-7
5.8101,-9.3738,-14051,-7
5.8151,-9.2955,-14067,-15
5.8201,-9.2163,-14083,-15
5.8251,-9.1364,-14098,-15
5.8301,-9.0556,-14114,-7
5.8351,-8.9742,-14130,-7
5.8401,-8.8919,-14145,-7
5.8451,-8.809,-14161,-7
5.8501,-8.7254,-14177,-17
5.8551,-8.6411,-14192,-17
5.8601,-8.5561,-14208,-17
5.8651,-8.4706,-14223,-15
5.8701,-8.3844,-14239,-15
5.8751,-8.2976,-14254,-15
5.8801,-8.2103,-14270,-15
5.8851,-8.1224,-14286,-24
5.8901,-8.034,-14301,-24
5.8951,-7.945,-14317,-24
5.9001,-7.8557,-14332,-24
5.9051,-7.7658,-14347,-24
5.9101,-7.6755,-14363,-24
5.9151,-7.5848,-14378,-24
5.9201,-7.4937,-14394,-24
5.9251,-7.4023,-14409,-24
5.9301,-7.3105,-14425,-24
5.9351,-7.2183,-14440,-15
5.9401,-7.1259,-14456,-15
5.9451,-7.0332,-14471,-15
5.9501,-6.9402,-14486,-15
5.9551,-6.847,-14502,-15
5.9601,-6.7536,-14517,-15
5.9651,-6.66,-14532,-15
5.9701,-6.5663,-14548,-12
5.9751,-6.4724,-14563,-12
5.9801,-6.3784,-14578,-12
5.9851,-6.2843,-14593,-12
5.9901,-6.1901,-14609,-14
5.9951,-6.0959,-14624,-14
6.0001,-6.0016,-14639,-14
6.0051,-5.9074,-14654,-14
6.0101,-5.8132,-14669,-7
6.0151,-5.719,-14684,-7
6.0201,-5.6249,-14699,-7
6.0251,-5.5309,-14715,-24
6.0301,-5.437,-14730,-24
6.0351,-5.3432,-14745,-24
6.0401,-5.2496,-14760,-24
6.0451,-5.1562,-14775,-24
6.0501,-5.063,-14790,-24
6.0551,-4.9701,-14805,-24
6.0601,-4.8773,-14820,-24
6.0651,-4.7849,-14835,-24
6.0701,-4.6928,-14849,-24
6.0751,-4.6009,-14864,-24
6.0801,-4.5095,-14879,-24
6.0851,-4.4184,-14894,-24
6.0901,-4.3276,-14909,-24
6.0951,-4.2373,-14923,-15
6.1001,-4.1475,-14938,-15
6.1051,-4.0581,-14953,-15
6.1101,-3.9691,-14968,-15
6.1151,-3.8807,-14982,-24
6.1201,-3.7928,-14997,-24
6.1251,-3.7054,-15011,-24
6.1301,-3.6186,-15026,-28
6.1351,-3.5324,-15040,-28
6.1401,-3.4468,-15055,-28
6.1451,-3.3619,-15069,-28
6.1501,-3.2775,-15084,-24
6.1551,-3.1939,-15098,-24
6.1601,-3.1109,-15113,-24
6.1651,-3.0287,-15127,-30
6.1701,-2.9472,-15141,-30
6.1751,-2.8664,-15156,-30
6.1801,-2.7864,-15170,-30
6.1851,-2.7073,-15184,-30
6.1901,-2.6289,-15198,-30
6.1951,-2.5513,-15212,-30
6.2001,-2.4746,-15227,-30
6.2051,-2.3988,-15241,-24
6.2101,-2.3239,-15255,-24
6.2151,-2.2499,-15269,-24
6.2201,-2.1767,-15283,-28
6.2251,-2.1046,-15297,-28
6.2301,-2.0334,-15311,-28
6.2351,-1.9632,-15324,-28
6.2401,-1.8939,-15338,1
6.2451,-1.8257,-15352,1
6.2501,-1.7585,-15366,1
6.2551,-1.6924,-15379,-28
6.2601,-1.6273,-15393,-28
6.2651,-1.5633,-15407,-28
6.2701,-1.5004,-15420,-28
6.2751,-1.4387,-15434,-24
6.2801,-1.378,-15447,-24
6.2851,-1.3185,-15461,-24
6.2901,-1.2601,-15474,-24
6.2951,-1.2029,-15487,-24
6.3001,-1.1469,-15501,-24
6.3051,-1.0921,-15514,-24
6.3101,-1.0385,-15527,-15
6.3151,-0.98608,-15540,-15
6.3201,-0.93494,-15554,-15
6.3251,-0.88504,-15567,-24
6.3301,-0.83641,-15580,-24
6.3351,-0.78905,-15593,-24
6.3401,-0.74298,-15606,-24
6.3451,-0.6982,-15619,-24
6.3501,-0.65473,-15631,-24
6.3551,-0.61258,-15644,-24
6.3601,-0.57176,-15657,-15
6.3651,-0.53228,-15670,-15
6.3701,-0.49414,-15682,-15
6.3751,-0.45737,-15695,-15
6.3801,-0.42196,-15707,-14
6.3851,-0.38794,-15720,-14
6.3901,-0.35529,-15732,-14
6.3951,-0.32404,-15745,-14
6.4001,-0.29418,-15757,-7
6.4051,-0.26574,-15769,-7
6.4101,-0.23871,-15782,-7
6.4151,-0.2131,-15794,-7
6.4201,-0.18892,-15806,-7
6.4251,-0.16618,-15818,-7
6.4301,-0.14487,-15830,-7
6.4351,-0.12501,-15842,0
6.4401,-0.1066,-15854,0
6.4451,-0.089636,-15866,0
6.4501,-0.074137,-15878,-1
6.4551,-0.060099,-15889,-1
6.4601,-0.047525,-15901,-1
6.4651,-0.036422,-15913,-1
6.4701,-0.026789,-15925,-1
6.4751,-0.01863,-15936,-1
6.4801,-0.011947,-15948,-1
6.4851,-0.0067415,-15959,0
6.4901,-0.0030146,-15970,0
6.4951,-0.00076723,-15982,0
6.5001,-4.7684e-07,-15993,0
6.5051,-0.00071383,-16004,1
6.5101,-0.0029073,-16015,1
6.5151,-0.0065813,-16027,1
6.5201,-0.011733,-16038,0
6.5251,-0.018363,-16049,0
6.5301,-0.026468,-16060,0
6.5351,-0.036047,-16071,0
6.5401,-0.047097,-16082,0
6.5451,-0.059616,-16093,0
6.5501,-0.073603,-16103,0
6.5551,-0.089049,-16114,-3
6.5601,-0.10596,-16125,-3
6.5651,-0.12432,-16135,-3
6.5701,-0.14413,-16146,-3
6.5751,-0.16538,-16157,-3
6.5801,-0.18807,-16167,-3
6.5851,-0.2122,-16178,-3
6.5901,-0.23776,-16188,-3
6.5951,-0.26474,-16198,-7
6.6001,-0.29313,-16209,-7
6.6051,-0.32293,-16219,-7
6.6101,-0.35413,-16229,-14
6.6151,-0.38673,-16239,-14
6.6201,-0.42071,-16250,-14
6.6251,-0.45606,-16260,-14
6.6301,-0.49279,-16270,-15
6.6351,-0.53087,-16280,-15
6.6401,-0.5703,-16290,-15
6.6451,-0.61107,-16300,-24
6.6501,-0.65318,-16309,-24
6.6551,-0.6966,-16319,-24
6.6601,-0.74133,-16329,-24
6.6651,-0.78735,-16339,-30
6.6701,-0.83467,-16348,-30
6.6751,-0.88326,-16358,-30
6.6801,-0.9331,-16368,-31
6.6851,-0.98421,-16377,-31
6.6901,-1.0365,-16387,-31
6.6951,-1.0901,-16397,-31
6.7001,-1.1449,-16406,-31
6.7051,-1.2009,-16415,-31
6.7101,-1.258,-16425,-31
6.7151,-1.3163,-16434,-39
6.7201,-1.3758,-16444,-39
6.7251,-1.4364,-16453,-39
6.7301,-1.4982,-16462,-39
6.7351,-1.561,-16472,-56
6.7401,-1.625,-16481,-56
6.7451,-1.69,-16490,-56
6.7501,-1.7561,-16499,-48
6.7551,-1.8233,-16509,-48
6.7601,-1.8914,-16518,-48
6.7651,-1.9606,-16527,-48
6.7701,-2.0308,-16536,-56
6.7751,-2.102,-16545,-56
6.7801,-2.1741,-16555,-56
6.7851,-2.2472,-16564,-56
6.7901,-2.3212,-16573,-71
6.7951,-2.3961,-16582,-71
6.8001,-2.4719,-16592,-71
6.8051,-2.5485,-16601,-71
6.8101,-2.6261,-16610,-71
6.8151,-2.7044,-16619,-71
6.8201,-2.7836,-16629,-71
6.8251,-2.8635,-16638,-78
6.8301,-2.9443,-16647,-78
6.8351,-3.0257,-16657,-78
6.8401,-3.1079,-16666,-78
6.8451,-3.1909,-16675,-78
6.8501,-3.2745,-16685,-78
6.8551,-3.3588,-16694,-78
6.8601,-3.4437,-16704,-88
6.8651,-3.5293,-16713,-88
6.8701,-3.6155,-16723,-88
6.8751,-3.7023,-16733,-78
6.8801,-3.7896,-16742,-78
6.8851,-3.8775,-16752,-78
6.8901,-3.9659,-16762,-78
6.8951,-4.0548,-16772,-88
6.9001,-4.1442,-16782,-88
6.9051,-4.2341,-16792,-88
6.9101,-4.3244,-16802,-79
6.9151,-4.4151,-16812,-79
6.9201,-4.5062,-16822,-79
6.9251,-4.5976,-16832,-79
6.9301,-4.6894,-16843,-63
6.9351,-4.7816,-16853,-63
6.9401,-4.874,-16863,-63
6.9451,-4.9667,-16874,-71
6.9501,-5.0596,-16885,-71
6.9551,-5.1528,-16895,-71
6.9601,-5.2462,-16906,-71
6.9651,-5.3398,-16917,-79
6.9701,-5.4336,-16928,-79
6.9751,-5.5275,-16939,-79
6.9801,-5.6215,-16950,-79
6.9851,-5.7156,-16961,-63
6.9901,-5.8098,-16972,-63
6.9951,-5.904,-16983,-63
7.0001,-5.9982,-16995,-88
7.0051,-6.0925,-17006,-88
7.0101,-6.1867,-17017,-88
7.0151,-6.2809,-17029,-88
7.0201,-6.375,-17041,-63
7.0251,-6.469,-17053,-63
7.0301,-6.5629,-17065,-63
7.0351,-6.6566,-17076,-63
7.0401,-6.7502,-17088,-63
7.0451,-6.8437,-17101,-63
7.0501,-6.9369,-17113,-63
7.0551,-7.0298,-17125,-60
7.0601,-7.1225,-17137,-60
7.0651,-7.215,-17150,-60
7.0701,-7.3071,-17162,-56
7.0751,-7.3989,-17175,-56
7.0801,-7.4904,-17187,-56
7.0851,-7.5815,-17200,-56
7.0901,-7.6722,-17213,-56
7.0951,-7.7625,-17225,-56
7.1001,-7.8524,-17239,-56
7.1051,-7.9418,-17251,-48
7.1101,-8.0307,-17265,-48
7.1151,-8.1192,-17277,-48
7.1201,-8.2071,-17291,-48
7.1251,-8.2945,-17304,-48
7.1301,-8.3812,-17317,-48
7.1351,-8.4675,-17331,-48
7.1401,-8.5531,-17344,-44
7.1451,-8.638,-17357,-44
7.1501,-8.7224,-17371,-44
7.1551,-8.806,-17385,-44
7.1601,-8.889,-17398,-44
7.1651,-8.9712,-17412,-44
7.1701,-9.0527,-17426,-44
7.1751,-9.1335,-17440,-44
7.1801,-9.2135,-17454,-35
7.1851,-9.2926,-17467,-35
7.1901,-9.371,-17481,-35
7.1951,-9.4486,-17496,-39
7.2001,-9.5253,-17510,-39
7.2051,-9.6011,-17524,-39
7.2101,-9.676,-17538,-39
7.2151,-9.7501,-17552,-31
7.2201,-9.8232,-17567,-31
7.2251,-9.8953,-17581,-31
7.2301,-9.9665,-17595,-30
7.2351,-10.037,-17610,-30
7.2401,-10.106,-17624,-30
7.2451,-10.174,-17639,-30
7.2501,-10.241,-17653,-31
7.2551,-10.308,-17667,-31
7.2601,-10.373,-17682,-31
7.2651,-10.437,-17697,-28
7.2701,-10.499,-17711,-28
7.2751,-10.561,-17726,-28
7.2801,-10.622,-17741,-28
7.2851,-10.681,-17755,1
7.2901,-10.74,-17770,1
7.2951,-10.797,-17785,1
7.3001,-10.853,-17799,-31
7.3051,-10.908,-17814,-31
7.3101,-10.961,-17829,-31
7.3151,-11.014,-17844,-31
7.3201,-11.065,-17859,-24
7.3251,-11.115,-17874,-24
7.3301,-11.164,-17889,-24
7.3351,-11.211,-17904,-24
7.3401,-11.257,-17919,-24
7.3451,-11.302,-17934,-24
7.3501,-11.345,-17949,-24
7.3551,-11.387,-17964,-15
7.3601,-11.428,-17979,-15
7.3651,-11.468,-17994,-15
7.3701,-11.506,-18009,-15
7.3751,-11.543,-18024,-1
7.3801,-11.578,-18039,-1
7.3851,-11.612,-18055,-1
7.3901,-11.645,-18070,-28
7.3951,-11.676,-18085,-28
7.4001,-11.706,-18100,-28
7.4051,-11.734,-18115,-28
7.4101,-11.761,-18131,-24
7.4151,-11.787,-18146,-24
7.4201,-11.811,-18161,-24
7.4251,-11.834,-18177,-24
7.4301,-11.855,-18192,-24
7.4351,-11.875,-18207,-24
7.4401,-11.893,-18223,-24
7.4451,-11.91,-18238,-24
7.4501,-11.926,-18253,-24
7.4551,-11.94,-18269,-24
7.4601,-11.952,-18284,-24
7.4651,-11.964,-18300,-24
7.4701,-11.973,-18315,-24
7.4751,-11.981,-18331,-24
7.4801,-11.988,-18346,-15
7.4851,-11.993,-18361,-15
7.4901,-11.997,-18377,-15
7.4951,-11.999,-18393,-15
7.5001,-12,-18408,-15
7.5051,-11.999,-18424,-15
7.5101,-11.997,-18439,-15
7.5151,-11.993,-18455,-15
7.5201,-11.988,-18471,-15
7.5251,-11.982,-18486,-15
7.5301,-11.974,-18502,-24
7.5351,-11.964,-18517,-24
7.5401,-11.953,-18533,-24
7.5451,-11.94,-18549,-24
7.5501,-11.926,-18564,-15
7.5551,-11.911,-18580,-15
7.5601,-11.894,-18596,-15
7.5651,-11.876,-18611,-15
7.5701,-11.856,-18627,-15
7.5751,-11.835,-18643,-15
7.5801,-11.812,-18658,-15
7.5851,-11.788,-18674,-15
7.5901,-11.762,-18690,-15
7.5951,-11.735,-18705,-15
7.6001,-11.707,-18721,-15
7.6051,-11.677,-18737,-24
7.6101,-11.646,-18753,-24
7.6151,-11.613,-18768,-24
7.6201,-11.579,-18784,-7
7.6251,-11.544,-18800,-7
7.6301,-11.507,-18815,-7
7.6351,-11.469,-18831,-7
7.6401,-11.43,-18847,-1
7.6451,-11.389,-18862,-1
7.6501,-11.347,-18878,-1
7.6551,-11.303,-18894,-14
7.6601,-11.259,-18910,-14
7.6651,-11.213,-18925,-14
7.6701,-11.165,-18941,-14
7.6751,-11.117,-18957,-7
7.6801,-11.067,-18973,-7
7.6851,-11.016,-18988,-7
7.6901,-10.964,-19004,-15
7.6951,-10.91,-19020,-15
7.7001,-10.855,-19035,-15
7.7051,-10.799,-19051,-15
7.7101,-10.742,-19067,-12
7.7151,-10.684,-19083,-12
7.7201,-10.624,-19098,-12
7.7251,-10.564,-19114,-12
7.7301,-10.502,-19130,-15
7.7351,-10.439,-19145,-15
7.7401,-10.375,-19161,-15
7.7451,-10.31,-19177,-15
7.7501,-10.244,-19193,-15
7.7551,-10.177,-19208,-15
7.7601,-10.109,-19224,-15
7.7651,-10.039,-19240,-15
7.7701,-9.9693,-19255,-15
7.7751,-9.8981,-19271,-15
7.7801,-9.826,-19287,-15
7.7851,-9.7529,-19303,-15
7.7901,-9.6789,-19318,-15
7.7951,-9.604,-19334,-15
7.8001,-9.5282,-19349,-15
7.8051,-9.4516,-19365,-15
7.8101,-9.3741,-19381,-15
7.8151,-9.2957,-19397,-15
7.8201,-9.2165,-19412,-15
7.8251,-9.1366,-19428,-15
7.8301,-9.0559,-19443,-15
7.8351,-8.9744,-19459,-24
7.8401,-8.8922,-19475,-24
7.8451,-8.8092,-19490,-24
7.8501,-8.7256,-19506,-15
7.8551,-8.6413,-19521,-15
7.8601,-8.5564,-19537,-15
7.8651,-8.4708,-19553,-15
7.8701,-8.3846,-19568,-19
7.8751,-8.2978,-19584,-19
7.8801,-8.2105,-19599,-19
7.8851,-8.1226,-19615,-15
7.8901,-8.0342,-19630,-15
7.8951,-7.9453,-19646,-15
7.9001,-7.8559,-19661,-15
7.9051,-7.766,-19677,-24
7.9101,-7.6758,-19692,-24
7.9151,-7.5851,-19707,-24
7.9201,-7.494,-19723,-24
7.9251,-7.4025,-19738,-15
7.9301,-7.3107,-19754,-15
7.9351,-7.2186,-19769,-15
7.9401,-7.1261,-19785,-24
7.9451,-7.0334,-19800,-24
7.9501,-6.9405,-19815,-24
7.9551,-6.8473,-19831,-24
7.9601,-6.7539,-19846,-15
7.9651,-6.6603,-19861,-15
7.9701,-6.5665,-19877,-15
7.9751,-6.4726,-19892,-24
7.9801,-6.3786,-19907,-24
7.9851,-6.2845,-19923,-24
7.9901,-6.1904,-19938,-24
7.9951,-6.0961,-19953,-24
8.0001,-6.0019,-19968,-24
8.0051,-5.9077,-19983,-24
8.0101,-5.8134,-19999,-24
8.0151,-5.7193,-20014,-24
8.0201,-5.6251,-20029,-24
8.0251,-5.5311,-20044,-24
8.0301,-5.4372,-20059,-15
8.0351,-5.3435,-20074,-15
8.0401,-5.2499,-20089,-15
8.0451,-5.1565,-20104,-15
8.0501,-5.0633,-20119,-15
8.0551,-4.9703,-20134,-15
8.0601,-4.8776,-20149,-15
8.0651,-4.7851,-20164,-7
8.0701,-4.693,-20179,-7
8.0751,-4.6012,-20194,-7
8.0801,-4.5097,-20209,-24
8.0851,-4.4186,-20224,-24
8.0901,-4.3279,-20239,-24
8.0951,-4.2376,-20254,-24
8.1001,-4.1477,-20269,-31
8.1051,-4.0583,-20283,-31
8.1101,-3.9694,-20298,-31
8.1151,-3.8809,-20313,-31
8.1201,-3.793,-20327,-24
8.1251,-3.7057,-20342,-24
8.1301,-3.6189,-20357,-24
8.1351,-3.5327,-20371,-14
8.1401,-3.4471,-20386,-14
8.1451,-3.3621,-20401,-14
8.1501,-3.2778,-20415,-14
8.1551,-3.1941,-20429,-28
8.1601,-3.1112,-20444,-28
8.1651,-3.0289,-20458,-28
8.1701,-2.9474,-20473,-28
8.1751,-2.8666,-20487,-28
8.1801,-2.7867,-20501,-28
8.1851,-2.7075,-20516,-28
8.1901,-2.6291,-20530,-14
8.1951,-2.5515,-20544,-14
8.2001,-2.4748,-20559,-14
8.2051,-2.399,-20573,-28
8.2101,-2.3241,-20587,-28
8.2151,-2.25,-20601,-28
8.2201,-2.1769,-20615,-28
8.2251,-2.1048,-20629,-28
8.2301,-2.0336,-20643,-28
8.2351,-1.9633,-20657,-28
8.2401,-1.8941,-20671,-31
8.2451,-1.8259,-20685,-31
8.2501,-1.7587,-20699,-31
8.2551,-1.6926,-20713,-31
8.2601,-1.6275,-20726,-24
8.2651,-1.5635,-20740,-24
8.2701,-1.5006,-20754,-24
8.2751,-1.4388,-20768,-30
8.2801,-1.3781,-20781,-30
8.2851,-1.3186,-20795,-30
8.2901,-1.2603,-20808,-30
8.2951,-1.2031,-20822,-30
8.3001,-1.147,-20835,-30
8.3051,-1.0922,-20849,-30
8.3101,-1.0386,-20862,-30
8.3151,-0.98622,-20875,-17
8.3201,-0.93507,-20889,-17
8.3251,-0.88517,-20902,-17
8.3301,-0.83653,-20915,-15
8.3351,-0.78917,-20928,-15
8.3401,-0.74309,-20941,-15
8.3451,-0.69831,-20954,-15
8.3501,-0.65484,-20967,-15
8.3551,-0.61269,-20980,-15
8.3601,-0.57186,-20993,-15
8.3651,-0.53238,-21006,-7
8.3701,-0.49424,-21019,-7
8.3751,-0.45747,-21032,-7
8.3801,-0.42205,-21044,-7
8.3851,-0.38802,-21057,-7
8.3901,-0.35537,-21070,-7
8.3951,-0.32412,-21082,-7
8.4001,-0.29426,-21095,-7
8.4051,-0.26581,-21107,-7
8.4101,-0.23878,-21120,-7
8.4151,-0.21317,-21132,-7
8.4201,-0.18899,-21144,-7
8.4251,-0.16623,-21157,-7
8.4301,-0.14492,-21169,-7
8.4351,-0.12506,-21181,-3
8.4401,-0.10664,-21193,-3
8.4451,-0.089681,-21205,-3
8.4501,-0.074175,-21217,-3
8.4551,-0.060134,-21229,-1
8.4601,-0.047557,-21241,-1
8.4651,-0.036449,-21253,-1
8.4701,-0.026812,-21265,-1
8.4751,-0.018649,-21276,-1
8.4801,-0.011963,-21288,-1
8.4851,-0.0067534,-21300,-1
8.4901,-0.0030227,-21311,0
8.4951,-0.00077105,-21323,0
8.5001,-9.5367e-07,-21334,0
8.5051,-0.00071001,-21346,0
8.5101,-0.0028996,-21357,1
8.5151,-0.0065694,-21369,1
8.5201,-0.011717,-21380,1
8.5251,-0.018342,-21391,0
8.5301,-0.026443,-21402,0
8.5351,-0.036019,-21413,0
8.5401,-0.047067,-21425,0
8.5451,-0.059582,-21436,-1
8.5501,-0.073564,-21447,-1
8.5551,-0.089007,-21457,-1
8.5601,-0.10591,-21468,-1
8.5651,-0.12426,-21479,-1
8.5701,-0.14407,-21490,-1
8.5751,-0.16532,-21501,-1
8.5801,-0.18801,-21512,-7
8.5851,-0.21214,-21522,-7
8.5901,-0.23769,-21533,-7
8.5951,-0.26466,-21543,-7
8.6001,-0.29305,-21554,-7
8.6051,-0.32285,-21565,-7
8.6101,-0.35405,-21575,-7
8.6151,-0.38664,-21585,-15
8.6201,-0.42062,-21595,-15
8.6251,-0.45597,-21606,-15
8.6301,-0.49269,-21616,-15
8.6351,-0.53077,-21626,-15
8.6402,-0.5702,-21636,-15
8.6452,-0.61097,-21646,-15
8.6502,-0.65307,-21657,-28
8.6552,-0.69648,-21667,-28
8.6602,-0.74121,-21677,-28
8.6652,-0.78723,-21687,-28
8.6702,-0.83454,-21696,-28
8.6752,-0.88313,-21706,-28
8.6802,-0.93297,-21716,-28
8.6852,-0.98407,-21726,-31
8.6902,-1.0364,-21736,-31
8.6952,-1.09,-21745,-31
8.7002,-1.1447,-21755,-31
8.7052,-1.2007,-21765,-39
8.7102,-1.2579,-21774,-39
8.7152,-1.3162,-21784,-39
8.7202,-1.3757,-21793,-31
8.7252,-1.4363,-21803,-31
8.7302,-1.498,-21813,-31
8.7352,-1.5609,-21822,-31
8.7402,-1.6248,-21831,-49
8.7452,-1.6899,-21841,-49
8.7502,-1.756,-21850,-49
8.7552,-1.8231,-21860,-60
8.7602,-1.8913,-21869,-60
8.7652,-1.9605,-21879,-60
8.7702,-2.0306,-21888,-60
8.7752,-2.1018,-21897,-63
8.7802,-2.1739,-21907,-63
8.7852,-2.247,-21916,-63
8.7902,-2.321,-21926,-63
8.7952,-2.3959,-21935,-63
8.8002,-2.4717,-21944,-63
8.8052,-2.5483,-21954,-63
8.8102,-2.6259,-21963,-71
8.8152,-2.7042,-21973,-71
8.8202,-2.7834,-21982,-71
8.8252,-2.8633,-21991,-71
8.8302,-2.944,-22001,-71
8.8352,-3.0255,-22011,-71
8.8402,-3.1077,-22020,-71
8.8452,-3.1907,-22030,-63
8.8502,-3.2743,-22039,-63
8.8552,-3.3586,-22049,-63
8.8602,-3.4435,-22059,-79
8.8652,-3.5291,-22068,-79
8.8702,-3.6153,-22078,-79
8.8752,-3.702,-22088,-79
8.8802,-3.7894,-22098,-79
8.8852,-3.8773,-22108,-79
8.8902,-3.9657,-22118,-79
8.8952,-4.0546,-22128,-79
8.9002,-4.144,-22138,-76
8.9052,-4.2338,-22148,-76
8.9102,-4.3241,-22158,-76
8.9152,-4.4148,-22168,-63
8.9202,-4.5059,-22179,-63
8.9252,-4.5974,-22189,-63
8.9302,-4.6892,-22199,-63
8.9352,-4.7813,-22210,-78
8.9402,-4.8737,-22220,-78
8.9452,-4.9664,-22231,-78
8.9502,-5.0594,-22242,-71
8.9552,-5.1526,-22252,-71
8.9602,-5.246,-22263,-71
8.9652,-5.3396,-22274,-71
8.9702,-5.4333,-22285,-88
8.9752,-5.5272,-22296,-88
8.9802,-5.6212,-22307,-88
8.9852,-5.7153,-22319,-63
8.9902,-5.8095,-22330,-63
8.9952,-5.9037,-22341,-63
9.0002,-5.998,-22353,-63
9.0052,-6.0922,-22364,-71
9.0102,-6.1864,-22376,-71
9.0152,-6.2806,-22388,-71
9.0202,-6.3747,-22399,-60
9.0252,-6.4687,-22411,-60
9.0302,-6.5626,-22423,-60
9.0352,-6.6564,-22435,-60
9.0402,-6.75,-22447,-63
9.0452,-6.8434,-22459,-63
9.0502,-6.9366,-22472,-63
9.0552,-7.0296,-22484,-56
9.0602,-7.1223,-22496,-56
9.0652,-7.2147,-22509,-56
9.0702,-7.3069,-22521,-56
9.0752,-7.3987,-22534,-56
9.0802,-7.4902,-22547,-56
9.0852,-7.5813,-22559,-56
9.0902,-7.672,-22572,-56
9.0952,-7.7623,-22585,-56
9.1002,-7.8522,-22598,-56
9.1052,-7.9416,-22611,-56
9.1102,-8.0305,-22624,-39
9.1152,-8.1189,-22637,-39
9.1202,-8.2069,-22650,-39
9.1252,-8.2942,-22663,-39
9.1302,-8.381,-22677,-48
9.1352,-8.4672,-22690,-48
9.1402,-8.5528,-22704,-48
9.1452,-8.6378,-22717,-48
9.1502,-8.7221,-22731,-48
9.1552,-8.8058,-22744,-48
9.1602,-8.8887,-22758,-48
9.1652,-8.971,-22772,-31
9.1702,-9.0525,-22785,-31
9.1752,-9.1333,-22799,-31
9.1802,-9.2132,-22813,-31
9.1852,-9.2924,-22827,-31
9.1902,-9.3708,-22841,-31
9.1952,-9.4484,-22855,-31
9.2002,-9.5251,-22869,-39
9.2052,-9.6009,-22883,-39
9.2102,-9.6758,-22898,-39
9.2152,-9.7499,-22912,-31
9.2202,-9.823,-22926,-31
9.2252,-9.8951,-22941,-31
9.2302,-9.9663,-22955,-31
9.2352,-10.037,-22969,-15
9.2402,-10.106,-22984,-15
9.2452,-10.174,-22998,-15
9.2502,-10.241,-23013,-31
9.2552,-10.307,-23027,-31
9.2602,-10.372,-23042,-31
9.2652,-10.436,-23056,-31
9.2702,-10.499,-23071,-28
9.2752,-10.561,-23085,-28
9.2802,-10.622,-23100,-28
9.2852,-10.681,-23115,-28
9.2902,-10.74,-23130,-15
9.2952,-10.797,-23144,-15
9.3002,-10.853,-23159,-15
9.3052,-10.908,-23174,-19
9.3102,-10.961,-23189,-19
9.3152,-11.014,-23204,-19
9.3202,-11.065,-23219,-19
9.3252,-11.115,-23233,-24
9.3302,-11.163,-23248,-24
9.3352,-11.211,-23263,-24
9.3402,-11.257,-23278,-30
9.3452,-11.302,-23293,-30
9.3502,-11.345,-23308,-30
9.3552,-11.387,-23323,-30
9.3602,-11.428,-23339,-24
9.3652,-11.468,-23354,-24
9.3702,-11.506,-23369,-24
9.3752,-11.542,-23384,-15
9.3802,-11.578,-23399,-15
9.3852,-11.612,-23414,-15
9.3902,-11.645,-23430,-15
9.3952,-11.676,-23445,-15
9.4002,-11.706,-23460,-15
9.4052,-11.734,-23475,-15
9.4102,-11.761,-23491,-14
9.4152,-11.787,-23506,-14
9.4202,-11.811,-23521,-14
9.4252,-11.834,-23537,-14
9.4302,-11.855,-23552,-7
9.4352,-11.875,-23567,-7
9.4402,-11.893,-23583,-7
9.4452,-11.91,-23598,-7
9.4502,-11.926,-23614,-7
9.4552,-11.94,-23629,-7
9.4602,-11.952,-23645,-7
9.4652,-11.964,-23660,-3
9.4702,-11.973,-23676,-3
9.4752,-11.981,-23691,-3
9.4802,-11.988,-23707,-3
9.4852,-11.993,-23722,-7
9.4902,-11.997,-23738,-7
9.4952,-11.999,-23753,-7
9.5002,-12,-23769,-3
9.5052,-11.999,-23785,-3
9.5102,-11.997,-23800,-3
9.5152,-11.993,-23816,-3
9.5202,-11.988,-23831,-24
9.5252,-11.982,-23847,-24
9.5302,-11.974,-23863,-24
9.5352,-11.964,-23879,-7
9.5402,-11.953,-23894,-7
9.5452,-11.94,-23910,-7
9.5502,-11.926,-23926,-7
9.5552,-11.911,-23942,-15
9.5602,-11.894,-23957,-15
9.5652,-11.876,-23973,-15
9.5702,-11.856,-23989,-15
9.5752,-11.835,-24005,-15
9.5802,-11.812,-24021,-15
9.5852,-11.788,-24036,-15
9.5902,-11.762,-24052,-15
9.5952,-11.735,-24068,-15
9.6002,-11.707,-24084,-15
9.6052,-11.677,-24100,-15
9.6102,-11.646,-24115,-15
9.6152,-11.613,-24131,-15
9.6202,-11.579,-24147,-15
9.6252,-11.544,-24163,-24
9.6302,-11.507,-24179,-24
9.6352,-11.469,-24195,-24
9.6402,-11.43,-24211,-24
9.6452,-11.389,-24227,-15
9.6502,-11.347,-24242,-15
9.6552,-11.304,-24258,-15
9.6602,-11.259,-24274,-15
9.6652,-11.213,-24290,-15
9.6702,-11.166,-24306,-15
9.6752,-11.117,-24322,-15
9.6802,-11.067,-24338,-15
9.6852,-11.016,-24354,-15
9.6902,-10.964,-24369,-15
9.6952,-10.91,-24385,-7
9.7002,-10.855,-24401,-7
9.7052,-10.799,-24417,-7
9.7102,-10.742,-24433,-7
9.7152,-10.684,-24449,-15
9.7202,-10.624,-24465,-15
9.7252,-10.564,-24480,-15
9.7302,-10.502,-24496,-15
9.7352,-10.439,-24512,-15
9.7402,-10.375,-24528,-15
9.7452,-10.31,-24544,-15
9.7502,-10.244,-24559,-15
9.7552,-10.177,-24575,-15
9.7602,-10.109,-24591,-15
9.7652,-10.04,-24607,-15
9.7702,-9.9695,-24623,-15
9.7752,-9.8983,-24639,-15
9.7802,-9.8262,-24654,-15
9.7852,-9.7531,-24670,-17
9.7902,-9.6791,-24686,-17
9.7952,-9.6042,-24702,-17
9.8002,-9.5284,-24717,-12
9.8052,-9.4518,-24733,-12
9.8102,-9.3743,-24749,-12
9.8152,-9.2959,-24765,-12
9.8202,-9.2168,-24780,-15
9.8252,-9.1368,-24796,-15
9.8302,-9.0561,-24812,-15
9.8352,-8.9746,-24828,-15
9.8402,-8.8924,-24843,-15
9.8452,-8.8095,-24859,-15
9.8502,-8.7258,-24875,-15
9.8552,-8.6415,-24890,-24
9.8602,-8.5566,-24906,-24
9.8652,-8.471,-24922,-24
9.8702,-8.3848,-24937,-24
9.8752,-8.2981,-24953,-15
9.8802,-8.2107,-24969,-15
9.8852,-8.1228,-24984,-15
9.8902,-8.0344,-25000,0
9.8952,-7.9455,-25016,0
9.9002,-7.8561,-25031,0
9.9052,-7.7663,-25047,0
9.9102,-7.676,-25062,-19
9.9152,-7.5853,-25078,-19
9.9202,-7.4942,-25093,-19
9.9252,-7.4028,-25109,-1
9.9302,-7.3109,-25124,-1
9.9352,-7.2188,-25140,-1
9.9402,-7.1264,-25155,-1
9.9452,-7.0337,-25171,-24
9.9502,-6.9407,-25186,-24
9.9552,-6.8475,-25202,-24
9.9602,-6.7541,-25217,1
9.9652,-6.6605,-25233,1
9.9702,-6.5668,-25248,1
9.9752,-6.4729,-25263,1
9.9802,-6.3789,-25279,-17
9.9852,-6.2848,-25294,-17
9.9902,-6.1906,-25309,-17
9.9952,-6.0964,-25325,-24
10,-6.0021,-25340,-24
10.005,-5.9079,-25355,-24
10.01,-5.8137,-25371,-24
10.015,-5.7195,-25386,-15
10.02,-5.6254,-25401,-15
10.025,-5.5314,-25416,-15
10.03,-5.4375,-25431,-15
10.035,-5.3437,-25447,-24
10.04,-5.2501,-25462,-24
10.045,-5.1567,-25477,-24
10.05,-5.0635,-25492,-24
10.055,-4.9705,-25507,-24
10.06,-4.8778,-25522,-24
10.065,-4.7854,-25537,-24
10.07,-4.6932,-25552,-24
10.075,-4.6014,-25567,-24
10.08,-4.5099,-25582,-24
10.085,-4.4188,-25597,-28
10.09,-4.3281,-25612,-28
10.095,-4.2378,-25627,-28
10.1,-4.1479,-25642,-28
10.105,-4.0585,-25657,-15
10.11,-3.9696,-25671,-15
10.115,-3.8812,-25686,-15
10.12,-3.7933,-25701,-28
10.125,-3.7059,-25716,-28
10.13,-3.6191,-25730,-28
10.135,-3.5329,-25745,-28
10.14,-3.4473,-25759,-28
10.145,-3.3623,-25774,-28
10.15,-3.278,-25789,-28
10.155,-3.1943,-25803,-30
10.16,-3.1114,-25818,-30
10.165,-3.0291,-25832,-30
10.17,-2.9476,-25847,-30
10.175,-2.8669,-25861,-15
10.18,-2.7869,-25876,-15
10.185,-2.7077,-25890,-15
10.19,-2.6293,-25904,-28
10.195,-2.5517,-25919,-28
10.2,-2.475,-25933,-28
10.205,-2.3992,-25947,-28
10.21,-2.3243,-25961,-19
10.215,-2.2502,-25975,-19
10.22,-2.1771,-25989,-19
10.225,-2.105,-26003,-19
10.23,-2.0338,-26018,-28
10.235,-1.9635,-26032,-28
10.24,-1.8943,-26046,-28
10.245,-1.8261,-26059,-28
10.25,-1.7589,-26073,-28
10.255,-1.6928,-26087,-28
10.26,-1.6277,-26101,-28
10.265,-1.5637,-26115,-30
10.27,-1.5008,-26129,-30
10.275,-1.439,-26142,-30
10.28,-1.3783,-26156,-24
10.285,-1.3188,-26170,-24
10.29,-1.2604,-26183,-24
10.295,-1.2032,-26197,-24
10.3,-1.1472,-26210,-19
10.305,-1.0924,-26224,-19
10.31,-1.0387,-26237,-19
10.315,-0.98636,-26250,-15
10.32,-0.9352,-26264,-15
10.325,-0.8853,-26277,-15
10.33,-0.83666,-26290,-15
10.335,-0.7893,-26303,-15
10.34,-0.74321,-26316,-15
10.345,-0.69843,-26329,-15
10.35,-0.65496,-26343,-15
10.355,-0.6128,-26355,-15
10.36,-0.57197,-26368,-15
10.365,-0.53248,-26381,-15
10.37,-0.49435,-26394,-12
10.375,-0.45756,-26407,-12
10.38,-0.42215,-26419,-12
10.385,-0.38812,-26432,-7
10.39,-0.35546,-26445,-7
10.395,-0.3242,-26457,-7
10.4,-0.29434,-26470,-7
10.405,-0.26589,-26482,-12
10.41,-0.23885,-26495,-12
10.415,-0.21323,-26507,-12
10.42,-0.18905,-26519,-12
10.425,-0.1663,-26532,-7
10.43,-0.14498,-26544,-7
10.435,-0.12511,-26556,-7
10.44,-0.10669,-26568,-3
10.445,-0.089724,-26580,-3
10.45,-0.074214,-26592,-3
10.455,-0.060168,-26604,-3
10.46,-0.047589,-26616,-1
10.465,-0.036476,-26628,-1
10.47,-0.026835,-26640,-1
10.475,-0.01867,-26651,-1
10.48,-0.011979,-26663,-1
10.485,-0.0067654,-26675,-1
10.49,-0.0030303,-26686,-1
10.495,-0.00077581,-26698,0
10.5,-4.7684e-07,-26709,0
10.505,-0.00070572,-26721,0
10.51,-0.0028925,-26732,1
10.515,-0.0065565,-26744,1
10.52,-0.011701,-26755,1
10.525,-0.018323,-26766,1
10.53,-0.02642,-26777,0
10.535,-0.035992,-26789,0
10.54,-0.047035,-26800,0
10.545,-0.059548,-26811,-1
10.55,-0.073524,-26822,-1
10.555,-0.088964,-26833,-1
10.56,-0.10586,-26844,-1
10.565,-0.12421,-26855,-1
10.57,-0.14402,-26865,-1
10.575,-0.16526,-26876,-1
10.58,-0.18795,-26887,-7
10.585,-0.21207,-26897,-7
10.59,-0.23762,-26908,-7
10.595,-0.26459,-26919,-7
10.6,-0.29298,-26929,-7
10.605,-0.32277,-26940,-7
10.61,-0.35396,-26950,-7
10.615,-0.38655,-26961,-7
10.62,-0.42052,-26971,-15
10.625,-0.45587,-26981,-15
10.63,-0.49259,-26992,-15
10.635,-0.53067,-27002,-15
10.64,-0.57009,-27012,-15
10.645,-0.61086,-27022,-15
10.65,-0.65295,-27032,-15
10.655,-0.69636,-27042,-28
10.66,-0.74109,-27052,-28
10.665,-0.78711,-27062,-28
10.67,-0.83442,-27072,-30
10.675,-0.88299,-27082,-30
10.68,-0.93284,-27092,-30
10.685,-0.98394,-27101,-30
10.69,-1.0363,-27111,-31
10.695,-1.0898,-27121,-31
10.7,-1.1446,-27131,-31
10.705,-1.2006,-27140,-39
10.71,-1.2577,-27150,-39
10.715,-1.316,-27160,-39
10.72,-1.3755,-27169,-39
10.725,-1.4361,-27179,-56
10.73,-1.4979,-27188,-56
10.735,-1.5607,-27198,-56
10.74,-1.6247,-27207,-56
10.745,-1.6897,-27217,-56
10.75,-1.7558,-27226,-56
10.755,-1.8229,-27236,-56
10.76,-1.8911,-27245,-56
10.765,-1.9603,-27255,-56
10.77,-2.0304,-27264,-56
10.775,-2.1016,-27273,-63
10.78,-2.1737,-27283,-63
10.785,-2.2468,-27292,-63
10.79,-2.3208,-27302,-63
10.795,-2.3957,-27311,-63
10.8,-2.4715,-27321,-63
10.805,-2.5481,-27330,-63
10.81,-2.6256,-27339,-63
10.815,-2.704,-27349,-63
10.82,-2.7831,-27358,-63
10.825,-2.8631,-27368,-63
10.83,-2.9438,-27377,-76
10.835,-3.0253,-27387,-76
10.84,-3.1075,-27397,-76
10.845,-3.1904,-27406,-76
10.85,-3.2741,-27416,-63
10.855,-3.3583,-27425,-63
10.86,-3.4433,-27435,-63
10.865,-3.5289,-27445,-79
10.87,-3.615,-27455,-79
10.875,-3.7018,-27465,-79
10.88,-3.7892,-27474,-79
10.885,-3.8771,-27484,-79
10.89,-3.9654,-27494,-79
10.895,-4.0544,-27504,-79
10.9,-4.1438,-27514,-88
10.905,-4.2336,-27525,-88
10.91,-4.3239,-27535,-88
10.915,-4.4146,-27545,-88
10.92,-4.5057,-27555,-79
10.925,-4.5971,-27566,-79
10.93,-4.6889,-27576,-79
10.935,-4.7811,-27587,-79
10.94,-4.8735,-27597,-79
10.945,-4.9662,-27608,-79
10.95,-5.0592,-27619,-79
10.955,-5.1524,-27630,-63
10.96,-5.2457,-27641,-63
10.965,-5.3393,-27652,-63
10.97,-5.4331,-27663,-63
10.975,-5.527,-27674,-63
10.98,-5.621,-27685,-63
10.985,-5.7151,-27696,-63
10.99,-5.8093,-27708,-71
10.995,-5.9035,-27719,-71
11,-5.9977,-27731,-71
11.005,-6.092,-27742,-71
11.01,-6.1862,-27754,-63
11.015,-6.2804,-27765,-63
11.02,-6.3745,-27777,-63
11.025,-6.4685,-27789,-78
11.03,-6.5624,-27801,-78
11.035,-6.6561,-27813,-78
11.04,-6.7497,-27825,-78
11.045,-6.8432,-27838,-63
11.05,-6.9364,-27850,-63
11.055,-7.0293,-27862,-63
11.06,-7.1221,-27875,-60
11.065,-7.2145,-27887,-60
11.07,-7.3066,-27900,-60
11.075,-7.3985,-27912,-60
11.08,-7.4899,-27925,-60
11.085,-7.581,-27938,-60
11.09,-7.6718,-27951,-60
11.095,-7.7621,-27964,-39
11.1,-7.8519,-27977,-39
11.105,-7.9413,-27990,-39
11.11,-8.0303,-28003,-39
11.115,-8.1187,-28016,-48
11.12,-8.2066,-28029,-48
11.125,-8.294,-28043,-48
11.13,-8.3808,-28056,-31
11.135,-8.467,-28069,-31
11.14,-8.5526,-28083,-31
11.145,-8.6376,-28096,-31
11.15,-8.7219,-28110,-39
11.155,-8.8056,-28124,-39
11.16,-8.8885,-28137,-39
11.165,-8.9708,-28151,-31
11.17,-9.0523,-28165,-31
11.175,-9.133,-28179,-31
11.18,-9.213,-28193,-31
11.185,-9.2922,-28207,-31
11.19,-9.3706,-28221,-31
11.195,-9.4481,-28235,-31
11.2,-9.5249,-28249,-31
11.205,-9.6007,-28264,-24
11.21,-9.6756,-28278,-24
11.215,-9.7497,-28292,-24
11.22,-9.8228,-28307,-31
11.225,-9.8949,-28321,-31
11.23,-9.9661,-28335,-31
11.235,-10.036,-28350,-31
11.24,-10.106,-28364,-24
11.245,-10.174,-28379,-24
11.25,-10.241,-28393,-24
11.255,-10.307,-28408,-31
11.26,-10.372,-28422,-31
11.265,-10.436,-28437,-31
11.27,-10.499,-28452,-31
11.275,-10.561,-28466,-24
11.28,-10.622,-28481,-24
11.285,-10.681,-28496,-24
11.29,-10.74,-28511,-28
11.295,-10.797,-28525,-28
11.3,-10.853,-28540,-28
11.305,-10.908,-28555,-28
11.31,-10.961,-28570,-15
11.315,-11.014,-28585,-15
11.32,-11.065,-28600,-15
11.325,-11.115,-28615,-24
11.33,-11.163,-28630,-24
11.335,-11.211,-28645,-24
11.34,-11.257,-28660,-24
11.345,-11.302,-28675,-28
11.35,-11.345,-28690,-28
11.355,-11.387,-28705,-28
11.36,-11.428,-28721,-15
11.365,-11.467,-28736,-15
11.37,-11.506,-28751,-15
11.375,-11.542,-28766,-15
11.38,-11.578,-28781,-28
11.385,-11.612,-28797,-28
11.39,-11.644,-28812,-28
11.395,-11.676,-28827,-28
11.4,-11.706,-28843,-19
11.405,-11.734,-28858,-19
11.41,-11.761,-28873,-19
11.415,-11.787,-28888,-24
11.42,-11.811,-28904,-24
11.425,-11.834,-28919,-24
11.43,-11.855,-28935,-24
11.435,-11.875,-28950,-15
11.44,-11.893,-28966,-15
11.445,-11.91,-28981,-15
11.45,-11.926,-28997,-24
11.455,-11.94,-29012,-24
11.46,-11.952,-29028,-24
11.465,-11.964,-29043,-24
11.47,-11.973,-29059,-15
11.475,-11.981,-29074,-15
11.48,-11.988,-29090,-15
11.485,-11.993,-29105,-24
11.49,-11.997,-29121,-24
11.495,-11.999,-29137,-24
11.5,-12,-29152,-24
11.505,-11.999,-29168,-15
11.51,-11.997,-29184,-15
11.515,-11.993,-29199,-15
11.52,-11.988,-29215,-15
11.525,-11.982,-29231,-15
11.53,-11.974,-29247,-15
11.535,-11.964,-29262,-15
11.54,-11.953,-29278,-15
11.545,-11.94,-29294,-15
11.55,-11.926,-29310,-15
11.555,-11.911,-29326,-15
11.56,-11.894,-29341,-15
11.565,-11.876,-29357,-15
11.57,-11.856,-29373,-15
11.575,-11.835,-29389,-15
11.58,-11.812,-29405,-15
11.585,-11.788,-29421,-15
11.59,-11.762,-29437,-15
11.595,-11.735,-29452,-15
11.6,-11.707,-29468,-15
11.605,-11.677,-29484,-15
11.61,-11.646,-29500,-24
11.615,-11.613,-29516,-24
11.62,-11.58,-29532,-24
11.625,-11.544,-29548,-24
11.63,-11.507,-29563,-7
11.635,-11.469,-29579,-7
11.64,-11.43,-29595,-7
11.645,-11.389,-29611,-24
11.65,-11.347,-29627,-24
11.655,-11.304,-29643,-24
11.66,-11.259,-29659,-24
11.665,-11.213,-29675,-15
11.67,-11.166,-29691,-15
11.675,-11.117,-29707,-15
11.68,-11.067,-29722,-15
11.685,-11.016,-29738,-15
11.69,-10.964,-29754,-15
11.695,-10.91,-29770,-15
11.7,-10.855,-29786,-15
11.705,-10.8,-29802,-15
11.71,-10.742,-29818,-15
11.715,-10.684,-29834,-15
11.72,-10.625,-29850,-15
11.725,-10.564,-29865,-15
11.73,-10.502,-29881,-15
11.735,-10.439,-29897,-15
11.74,-10.375,-29913,-15
11.745,-10.31,-29929,-15
11.75,-10.244,-29945,-15
11.755,-10.177,-29961,0
11.76,-10.109,-29977,0
11.765,-10.04,-29993,0
11.77,-9.9696,-30008,-15
11.775,-9.8985,-30024,-15
11.78,-9.8264,-30040,-15
11.785,-9.7533,-30056,-15
11.79,-9.6793,-30072,-7
11.795,-9.6044,-30088,-7
11.8,-9.5286,-30103,-7
11.805,-9.452,-30119,-15
11.81,-9.3745,-30135,-15
11.815,-9.2961,-30151,-15
11.82,-9.217,-30167,-15
11.825,-9.137,-30183,-15
11.83,-9.0563,-30198,-15
11.835,-8.9748,-30214,-15
11.84,-8.8926,-30230,-15
11.845,-8.8097,-30246,-15
11.85,-8.7261,-30261,-15
11.855,-8.6418,-30277,-15
11.86,-8.5568,-30293,-15
11.865,-8.4713,-30309,-15
11.87,-8.3851,-30325,-15
11.875,-8.2983,-30340,-15
11.88,-8.211,-30356,-15
11.885,-8.1231,-30372,-15
11.89,-8.0347,-30387,-15
11.895,-7.9458,-30403,-19
11.9,-7.8564,-30419,-19
11.905,-7.7665,-30434,-19
11.91,-7.6762,-30450,-15
11.915,-7.5855,-30466,-15
11.92,-7.4944,-30481,-15
11.925,-7.403,-30497,-15
11.93,-7.3112,-30513,-24
11.935,-7.2191,-30528,-24
11.94,-7.1266,-30544,-24
11.945,-7.0339,-30559,-24
11.95,-6.941,-30575,-24
11.955,-6.8478,-30590,-24
11.96,-6.7544,-30606,-24
11.965,-6.6608,-30621,-24
11.97,-6.567,-30637,-24
11.975,-6.4731,-30652,-24
11.98,-6.3791,-30668,-24
11.985,-6.285,-30683,-24
11.99,-6.1909,-30699,-24
11.995,-6.0966,-30714,-24
12,-6.0024,-30729,-24
12.005,-5.9082,-30745,-24
12.01,-5.8139,-30760,-24
12.015,-5.7197,-30776,-24
12.02,-5.6257,-30791,-24
12.025,-5.5316,-30806,-24
12.03,-5.4377,-30822,-24
12.035,-5.344,-30837,-24
12.04,-5.2504,-30852,-24
12.045,-5.157,-30867,-24
12.05,-5.0638,-30883,-24
12.055,-4.9708,-30898,-15
12.06,-4.8781,-30913,-15
12.065,-4.7856,-30928,-15
12.07,-4.6935,-30943,-24
12.075,-4.6017,-30958,-24
12.08,-4.5102,-30973,-24
12.085,-4.4191,-30989,-24
12.09,-4.3284,-31003,-24
12.095,-4.2381,-31018,-24
12.1,-4.1482,-31033,-24
12.105,-4.0588,-31048,-19
12.11,-3.9698,-31063,-19
12.115,-3.8814,-31078,-19
12.12,-3.7935,-31093,-19
12.125,-3.7061,-31108,-1
12.13,-3.6193,-31123,-1
12.135,-3.5331,-31137,-1
12.14,-3.4475,-31152,-1
12.145,-3.3625,-31167,-28
12.15,-3.2782,-31181,-28
12.155,-3.1945,-31196,-28
12.16,-3.1116,-31211,-24
12.165,-3.0293,-31225,-24
12.17,-2.9478,-31240,-24
12.175,-2.8671,-31254,-24
12.18,-2.7871,-31269,-15
12.185,-2.7079,-31283,-15
12.19,-2.6295,-31298,-15
12.195,-2.5519,-31312,-28
12.2,-2.4752,-31326,-28
12.205,-2.3994,-31341,-28
12.21,-2.3245,-31355,-28
12.215,-2.2504,-31369,-24
12.22,-2.1773,-31383,-24
12.225,-2.1052,-31398,-24
12.23,-2.0339,-31412,-7
12.235,-1.9637,-31426,-7
12.24,-1.8945,-31440,-7
12.245,-1.8263,-31454,-7
12.25,-1.7591,-31468,-28
12.255,-1.6929,-31482,-28
12.26,-1.6278,-31496,-28
12.265,-1.5638,-31510,-24
12.27,-1.5009,-31524,-24
12.275,-1.4391,-31537,-24
12.28,-1.3785,-31551,-24
12.285,-1.3189,-31565,-15
12.29,-1.2606,-31579,-15
12.295,-1.2034,-31592,-15
12.3,-1.1473,-31606,-24
12.305,-1.0925,-31619,-24
12.31,-1.0389,-31633,-24
12.315,-0.98649,-31646,-24
12.32,-0.93533,-31660,-24
12.325,-0.88543,-31673,-24
12.33,-0.83679,-31686,-24
12.335,-0.78941,-31700,-24
12.34,-0.74334,-31713,-15
12.345,-0.69855,-31726,-15
12.35,-0.65507,-31739,-15
12.355,-0.6129,-31752,-15
12.36,-0.57208,-31765,-15
12.365,-0.53258,-31778,-15
12.37,-0.49444,-31791,-15
12.375,-0.45765,-31804,-15
12.38,-0.42224,-31817,-15
12.385,-0.3882,-31829,-15
12.39,-0.35554,-31842,-7
12.395,-0.32428,-31855,-7
12.4,-0.29442,-31867,-7
12.405,-0.26596,-31880,-7
12.41,-0.23892,-31893,-7
12.415,-0.2133,-31905,-7
12.42,-0.18911,-31917,-7
12.425,-0.16635,-31930,-7
12.43,-0.14504,-31942,-7
12.435,-0.12516,-31954,-7
12.44,-0.10674,-31967,-7
12.445,-0.089764,-31979,-1
12.45,-0.074255,-31991,-1
12.455,-0.060204,-32003,-1
12.46,-0.047618,-32015,-1
12.465,-0.036505,-32027,-1
12.47,-0.02686,-32039,-1
12.475,-0.018689,-32051,-1
12.48,-0.011994,-32062,0
12.485,-0.0067768,-32074,0
12.49,-0.0030384,-32086,0
12.495,-0.00077963,-32098,0
12.5,-9.5367e-07,-32109,0
12.505,-0.00070286,-32121,0
12.51,-0.0028839,-32132,0
12.515,-0.006546,-32144,1
12.52,-0.011685,-32155,1
12.525,-0.018304,-32167,1
12.53,-0.026398,-32178,1
12.535,-0.035966,-32189,0
12.54,-0.047003,-32200,0
12.545,-0.059512,-32211,0
12.55,-0.073486,-32223,-1
12.555,-0.08892,-32234,-1
12.56,-0.10581,-32245,-1
12.565,-0.12416,-32256,-1
12.57,-0.14396,-32267,-3
12.575,-0.1652,-32277,-3
12.58,-0.18789,-32288,-3
12.585,-0.21201,-32299,-7
12.59,-0.23755,-32310,-7
12.595,-0.26452,-32321,-7
12.6,-0.2929,-32331,-7
12.605,-0.32269,-32342,-7
12.61,-0.35388,-32352,-7
12.615,-0.38646,-32363,-7
12.62,-0.42043,-32373,-15
12.625,-0.45578,-32383,-15
12.63,-0.49249,-32394,-15
12.635,-0.53056,-32404,-15
12.64,-0.56999,-32415,-24
12.645,-0.61074,-32425,-24
12.65,-0.65284,-32435,-24
12.655,-0.69625,-32445,-24
12.66,-0.74097,-32455,-24
12.665,-0.78698,-32465,-24
12.67,-0.83429,-32475,-24
12.675,-0.88287,-32485,-31
12.68,-0.9327,-32495,-31
12.685,-0.98379,-32505,-31
12.69,-1.0361,-32515,-39
12.695,-1.0897,-32525,-39
12.7,-1.1444,-32535,-39
12.705,-1.2004,-32544,-39
12.71,-1.2576,-32554,-39
12.715,-1.3159,-32564,-39
12.72,-1.3753,-32573,-39
12.725,-1.436,-32583,-39
12.73,-1.4977,-32593,-49
12.735,-1.5605,-32602,-49
12.74,-1.6245,-32612,-49
12.745,-1.6895,-32622,-56
12.75,-1.7556,-32631,-56
12.755,-1.8227,-32641,-56
12.76,-1.8909,-32650,-56
12.765,-1.9601,-32660,-56
12.77,-2.0303,-32669,-56
12.775,-2.1014,-32679,-56
12.78,-2.1735,-32688,-63
12.785,-2.2466,-32698,-63
12.79,-2.3206,-32707,-63
12.795,-2.3955,-32717,-63
12.8,-2.4713,-32727,-63
12.805,-2.5479,-32736,-63
12.81,-2.6254,-32746,-63
12.815,-2.7038,-32755,-63
12.82,-2.7829,-32765,-63
12.825,-2.8629,-32774,-63
12.83,-2.9436,-32784,-63
12.835,-3.0251,-32794,-63
12.84,-3.1073,-32803,-63
12.845,-3.1902,-32813,-63
12.85,-3.2738,-32823,-79
12.855,-3.3581,-32832,-79
12.86,-3.4431,-32842,-79
12.865,-3.5286,-32852,-79
12.87,-3.6148,-32862,-63
12.875,-3.7016,-32872,-63
12.88,-3.7889,-32882,-63
12.885,-3.8768,-32892,-88
12.89,-3.9652,-32902,-88
12.895,-4.0541,-32912,-88
12.9,-4.1435,-32922,-88
12.905,-4.2334,-32932,-88
12.91,-4.3237,-32943,-88
12.915,-4.4143,-32953,-88
12.92,-4.5054,-32963,-88
12.925,-4.5969,-32974,-78
12.93,-4.6887,-32984,-78
12.935,-4.7808,-32995,-78
12.94,-4.8732,-33005,-79
12.945,-4.966,-33016,-79
12.95,-5.0589,-33027,-79
12.955,-5.1521,-33038,-79
12.96,-5.2455,-33049,-63
12.965,-5.3391,-33060,-63
12.97,-5.4328,-33071,-63
12.975,-5.5267,-33082,-79
12.98,-5.6208,-33093,-79
12.985,-5.7148,-33105,-79
12.99,-5.809,-33116,-79
12.995,-5.9032,-33128,-71
13,-5.9975,-33139,-71
13.005,-6.0917,-33151,-71
13.01,-6.1859,-33162,-79
13.015,-6.2801,-33174,-79
13.02,-6.3742,-33186,-79
13.025,-6.4682,-33198,-79
13.03,-6.5621,-33210,-63
13.035,-6.6559,-33222,-63
13.04,-6.7495,-33234,-63
13.045,-6.8429,-33247,-56
13.05,-6.9361,-33259,-56
13.055,-7.0291,-33271,-56
13.06,-7.1218,-33284,-56
13.065,-7.2143,-33296,-46
13.07,-7.3064,-33309,-46
13.075,-7.3982,-33321,-46
13.08,-7.4897,-33334,-48
13.085,-7.5808,-33347,-48
13.09,-7.6715,-33360,-48
13.095,-7.7618,-33373,-48
13.1,-7.8517,-33386,-56
13.105,-7.9411,-33399,-56
13.11,-8.0301,-33412,-56
13.115,-8.1185,-33425,-56
13.12,-8.2064,-33439,-48
13.125,-8.2938,-33452,-48
13.13,-8.3806,-33465,-48
13.135,-8.4668,-33479,-48
13.14,-8.5524,-33493,-48
13.145,-8.6374,-33506,-48
13.15,-8.7217,-33520,-48
13.155,-8.8053,-33533,-31
13.16,-8.8883,-33547,-31
13.165,-8.9705,-33561,-31
13.17,-9.0521,-33575,-31
13.175,-9.1328,-33589,-31
13.18,-9.2128,-33603,-31
13.185,-9.292,-33617,-31
13.19,-9.3704,-33631,-31
13.195,-9.448,-33645,-31
13.2,-9.5246,-33659,-31
13.205,-9.6005,-33673,-31
13.21,-9.6754,-33688,-31
13.215,-9.7495,-33702,-31
13.22,-9.8226,-33716,-31
13.225,-9.8948,-33731,-24
13.23,-9.966,-33745,-24
13.235,-10.036,-33759,-24
13.24,-10.105,-33774,-7
13.245,-10.174,-33789,-7
13.25,-10.241,-33803,-7
13.255,-10.307,-33818,-7
13.26,-10.372,-33832,-28
13.265,-10.436,-33847,-28
13.27,-10.499,-33862,-28
13.275,-10.561,-33876,-28
13.28,-10.621,-33891,-28
13.285,-10.681,-33906,-28
13.29,-10.739,-33921,-28
13.295,-10.797,-33936,-15
13.3,-10.853,-33951,-15
13.305,-10.907,-33965,-15
13.31,-10.961,-33980,-15
13.315,-11.013,-33995,4
13.32,-11.065,-34010,4
13.325,-11.115,-34025,4
13.33,-11.163,-34040,-28
13.335,-11.211,-34055,-28
13.34,-11.257,-34071,-28
13.345,-11.301,-34086,-28
13.35,-11.345,-34101,-15
13.355,-11.387,-34116,-15
13.36,-11.428,-34131,-15
13.365,-11.467,-34146,-28
13.37,-11.506,-34162,-28
13.375,-11.542,-34177,-28
13.38,-11.578,-34192,-28
13.385,-11.612,-34207,-19
13.39,-11.644,-34223,-19
13.395,-11.676,-34238,-19
13.4,-11.706,-34253,-24
13.405,-11.734,-34269,-24
13.41,-11.761,-34284,-24
13.415,-11.787,-34300,-24
13.42,-11.811,-34315,-19
13.425,-11.834,-34331,-19
13.43,-11.855,-34346,-19
13.435,-11.875,-34361,-24
13.44,-11.893,-34377,-24
13.445,-11.91,-34393,-24
13.45,-11.926,-34408,-24
13.455,-11.94,-34424,-15
13.46,-11.952,-34439,-15
13.465,-11.963,-34455,-15
13.47,-11.973,-34470,-15
13.475,-11.981,-34486,-24
13.48,-11.988,-34502,-24
13.485,-11.993,-34517,-24
13.49,-11.997,-34533,-15
13.495,-11.999,-34549,-15
13.5,-12,-34565,-15
13.505,-11.999,-34580,-15
13.51,-11.997,-34596,-15
13.515,-11.993,-34612,-15
13.52,-11.988,-34628,-15
13.525,-11.982,-34643,-15
13.53,-11.974,-34659,-15
13.535,-11.964,-34675,-15
13.54,-11.953,-34691,-15
13.545,-11.941,-34707,-15
13.55,-11.927,-34723,-15
13.555,-11.911,-34739,-15
13.56,-11.894,-34755,-15
13.565,-11.876,-34771,-15
13.57,-11.856,-34786,-15
13.575,-11.835,-34802,-15
13.58,-11.812,-34818,1
13.585,-11.788,-34834,1
13.59,-11.762,-34850,1
13.595,-11.736,-34866,-15
13.6,-11.707,-34882,-15
13.605,-11.677,-34898,-15
13.61,-11.646,-34914,-15
13.615,-11.614,-34930,-12
13.62,-11.58,-34946,-12
13.625,-11.544,-34961,-12
13.63,-11.508,-34977,-15
13.635,-11.469,-34993,-15
13.64,-11.43,-35009,-15
13.645,-11.389,-35025,-15
13.65,-11.347,-35041,-12
13.655,-11.304,-35057,-12
13.66,-11.259,-35073,-12
13.665,-11.213,-35089,-12
13.67,-11.166,-35105,-15
13.675,-11.117,-35121,-15
13.68,-11.067,-35137,-15
13.685,-11.016,-35153,-15
13.69,-10.964,-35169,-15
13.695,-10.91,-35185,-15
13.7,-10.856,-35201,-15
13.705,-10.8,-35217,-24
13.71,-10.743,-35233,-24
13.715,-10.684,-35249,-24
13.72,-10.625,-35264,-17
13.725,-10.564,-35280,-17
13.73,-10.502,-35296,-17
13.735,-10.44,-35312,-17
13.74,-10.376,-35328,-7
13.745,-10.311,-35344,-7
13.75,-10.244,-35360,-7
13.755,-10.177,-35376,-15
13.76,-10.109,-35392,-15
13.765,-10.04,-35408,-15
13.77,-9.9698,-35424,-15
13.775,-9.8987,-35439,-15
13.78,-9.8266,-35455,-15
13.785,-9.7535,-35471,-15
13.79,-9.6795,-35487,-24
13.795,-9.6046,-35503,-24
13.8,-9.5288,-35519,-24
13.805,-9.4522,-35535,-24
13.81,-9.3747,-35551,-15
13.815,-9.2963,-35567,-15
13.82,-9.2172,-35582,-15
13.825,-9.1372,-35598,-15
13.83,-9.0565,-35614,-15
13.835,-8.975,-35630,-15
13.84,-8.8928,-35646,-15
13.845,-8.8099,-35661,-15
13.85,-8.7263,-35677,-15
13.855,-8.642,-35693,-15
13.86,-8.557,-35709,-15
13.865,-8.4715,-35725,-1
13.87,-8.3853,-35740,-1
13.875,-8.2985,-35756,-1
13.88,-8.2112,-35772,-15
13.885,-8.1233,-35788,-15
13.89,-8.0349,-35803,-15
13.895,-7.946,-35819,-15
13.9,-7.8566,-35835,-7
13.905,-7.7668,-35851,-7
13.91,-7.6765,-35866,-7
13.915,-7.5858,-35882,-24
13.92,-7.4947,-35898,-24
13.925,-7.4032,-35913,-24
13.93,-7.3114,-35929,-24
13.935,-7.2193,-35945,-24
13.94,-7.1269,-35961,-24
13.945,-7.0342,-35976,-24
13.95,-6.9412,-35992,-19
13.955,-6.848,-36007,-19
13.96,-6.7546,-36023,-19
13.965,-6.661,-36038,-19
13.97,-6.5673,-36054,-15
13.975,-6.4734,-36069,-15
13.98,-6.3794,-36085,-15
13.985,-6.2853,-36101,-24
13.99,-6.1911,-36116,-24
13.995,-6.0969,-36132,-24
14,-6.0026,-36147,-24
14.005,-5.9084,-36163,-15
14.01,-5.8142,-36178,-15
14.015,-5.72,-36193,-15
14.02,-5.6259,-36209,-24
14.025,-5.5319,-36224,-24
14.03,-5.438,-36239,-24
14.035,-5.3442,-36255,-24
14.04,-5.2506,-36270,-24
14.045,-5.1572,-36285,-24
14.05,-5.064,-36301,-24
14.055,-4.971,-36316,-24
14.06,-4.8783,-36331,-19
14.065,-4.7859,-36346,-19
14.07,-4.6937,-36362,-19
14.075,-4.6019,-36377,-14
14.08,-4.5104,-36392,-14
14.085,-4.4193,-36407,-14
14.09,-4.3286,-36422,-14
14.095,-4.2383,-36437,-7
14.1,-4.1484,-36452,-7
14.105,-4.059,-36467,-7
14.11,-3.9701,-36482,-24
14.115,-3.8816,-36497,-24
14.12,-3.7937,-36512,-24
14.125,-3.7064,-36527,-24
14.13,-3.6195,-36542,-24
14.135,-3.5333,-36557,-24
14.14,-3.4477,-36572,-24
14.145,-3.3627,-36587,-24
14.15,-3.2784,-36601,-24
14.155,-3.1948,-36616,-24
14.16,-3.1118,-36631,-24
14.165,-3.0296,-36646,-24
14.17,-2.9481,-36660,-24
14.175,-2.8673,-36675,-24
14.18,-2.7873,-36690,-24
14.185,-2.7081,-36704,-24
14.19,-2.6297,-36719,-24
14.195,-2.5522,-36733,-24
14.2,-2.4754,-36748,-24
14.205,-2.3996,-36762,-24
14.21,-2.3247,-36777,-24
14.215,-2.2506,-36791,-31
14.22,-2.1775,-36805,-31
14.225,-2.1053,-36820,-31
14.23,-2.0341,-36834,-31
14.235,-1.9639,-36848,-31
14.24,-1.8947,-36862,-31
14.245,-1.8264,-36877,-31
14.25,-1.7592,-36891,-31
14.255,-1.6931,-36905,-24
14.26,-1.628,-36919,-24
14.265,-1.564,-36933,-24
14.27,-1.5011,-36947,-30
14.275,-1.4393,-36961,-30
14.28,-1.3786,-36975,-30
14.285,-1.3191,-36988,-30
14.29,-1.2607,-37002,-15
14.295,-1.2035,-37016,-15
14.3,-1.1475,-37030,-15
14.305,-1.0926,-37043,-24
14.31,-1.039,-37057,-24
14.315,-0.98663,-37071,-24
14.32,-0.93547,-37084,-24
14.325,-0.88556,-37097,-24
14.33,-0.83692,-37111,-24
14.335,-0.78954,-37124,-24
14.34,-0.74345,-37138,-17
14.345,-0.69866,-37151,-17
14.35,-0.65518,-37164,-17
14.355,-0.61302,-37177,-17
14.36,-0.57218,-37191,-15
14.365,-0.53268,-37204,-15
14.37,-0.49454,-37217,-15
14.375,-0.45775,-37230,-12
14.38,-0.42233,-37243,-12
14.385,-0.38829,-37256,-12
14.39,-0.35563,-37269,-12
14.395,-0.32436,-37281,-12
14.4,-0.29449,-37294,-12
14.405,-0.26604,-37307,-12
14.41,-0.23899,-37319,-7
14.415,-0.21337,-37332,-7
14.42,-0.18917,-37345,-7
14.425,-0.16641,-37357,-7
14.43,-0.14509,-37370,-3
14.435,-0.12521,-37382,-3
14.44,-0.10678,-37395,-3
14.445,-0.089809,-37407,-3
14.45,-0.074292,-37419,-1
14.455,-0.060241,-37431,-1
14.46,-0.047652,-37443,-1
14.465,-0.036531,-37456,-1
14.47,-0.026882,-37468,-1
14.475,-0.018709,-37480,-1
14.48,-0.01201,-37492,-1
14.485,-0.0067883,-37504,0
14.49,-0.003046,-37515,0
14.495,-0.00078344,-37527,0
14.5,-9.5367e-07,-37539,1
14.505,-0.00069857,-37551,1
14.51,-0.0028758,-37563,1
14.515,-0.0065336,-37574,1
14.52,-0.011671,-37586,0
14.525,-0.018285,-37597,0
14.53,-0.026374,-37609,0
14.535,-0.035938,-37620,0
14.54,-0.046974,-37631,0
14.545,-0.059475,-37643,0
14.55,-0.073446,-37654,0
14.555,-0.088879,-37665,-1
14.56,-0.10577,-37676,-1
14.565,-0.12411,-37687,-1
14.57,-0.14391,-37699,-3
14.575,-0.16515,-37710,-3
14.58,-0.18783,-37721,-3
14.585,-0.21194,-37731,-3
14.59,-0.23748,-37742,-7
14.595,-0.26445,-37753,-7
14.6,-0.29282,-37764,-7
14.605,-0.32261,-37775,-12
14.61,-0.3538,-37785,-12
14.615,-0.38638,-37796,-12
14.62,-0.42034,-37807,-12
14.625,-0.45568,-37817,-15
14.63,-0.49239,-37828,-15
14.635,-0.53046,-37838,-15
14.64,-0.56988,-37849,-15
14.645,-0.61064,-37859,-24
14.65,-0.65273,-37869,-24
14.655,-0.69613,-37879,-24
14.66,-0.74085,-37890,-31
14.665,-0.78686,-37900,-31
14.67,-0.83416,-37910,-31
14.675,-0.88273,-37920,-31
14.68,-0.93257,-37930,-28
14.685,-0.98366,-37940,-28
14.69,-1.036,-37950,-28
14.695,-1.0895,-37960,-31
14.7,-1.1443,-37970,-31
14.705,-1.2003,-37980,-31
14.71,-1.2574,-37990,-31
14.715,-1.3157,-38000,-46
14.72,-1.3752,-38010,-46
14.725,-1.4358,-38020,-46
14.73,-1.4975,-38029,-48
14.735,-1.5604,-38039,-48
14.74,-1.6243,-38049,-48
14.745,-1.6893,-38059,-48
14.75,-1.7554,-38069,-56
14.755,-1.8226,-38078,-56
14.76,-1.8907,-38088,-56
14.765,-1.9599,-38097,-60
14.77,-2.0301,-38107,-60
14.775,-2.1012,-38117,-60
14.78,-2.1733,-38127,-60
14.785,-2.2464,-38136,-60
14.79,-2.3204,-38146,-60
14.795,-2.3953,-38155,-60
14.8,-2.4711,-38165,-63
14.805,-2.5477,-38175,-63
14.81,-2.6252,-38185,-63
14.815,-2.7036,-38194,-63
14.82,-2.7827,-38204,-63
14.825,-2.8627,-38214,-63
14.83,-2.9434,-38223,-63
14.835,-3.0249,-38233,-63
14.84,-3.1071,-38243,-78
14.845,-3.19,-38253,-78
14.85,-3.2736,-38263,-78
14.855,-3.3579,-38272,-63
14.86,-3.4428,-38282,-63
14.865,-3.5284,-38292,-63
14.87,-3.6146,-38302,-63
14.875,-3.7014,-38312,-79
14.88,-3.7887,-38322,-79
14.885,-3.8766,-38332,-79
14.89,-3.965,-38343,-79
14.895,-4.0539,-38353,-79
14.9,-4.1433,-38363,-79
14.905,-4.2331,-38373,-79
14.91,-4.3234,-38384,-71
14.915,-4.4141,-38394,-71
14.92,-4.5052,-38405,-71
14.925,-4.5966,-38415,-79
14.93,-4.6884,-38426,-79
14.935,-4.7806,-38436,-79
14.94,-4.873,-38447,-79
14.945,-4.9657,-38458,-88
14.95,-5.0587,-38469,-88
14.955,-5.1519,-38480,-88
14.96,-5.2453,-38491,-71
14.965,-5.3388,-38502,-71
14.97,-5.4326,-38513,-71
14.975,-5.5265,-38524,-71
14.98,-5.6205,-38536,-63
14.985,-5.7146,-38547,-63
14.99,-5.8088,-38559,-63
14.995,-5.903,-38570,-63
15,-5.9972,-38582,-63
15.005,-6.0915,-38593,-63
15.01,-6.1857,-38605,-63
15.015,-6.2799,-38617,-63
15.02,-6.374,-38629,-63
15.025,-6.468,-38641,-63
15.03,-6.5619,-38653,-63
15.035,-6.6556,-38665,-60
15.04,-6.7493,-38677,-60
15.045,-6.8427,-38690,-60
15.05,-6.9359,-38702,-56
15.055,-7.0288,-38715,-56
15.06,-7.1216,-38727,-56
15.065,-7.214,-38740,-56
15.07,-7.3061,-38752,-56
15.075,-7.398,-38765,-56
15.08,-7.4895,-38778,-56
15.085,-7.5806,-38791,-56
15.09,-7.6713,-38804,-56
15.095,-7.7616,-38817,-56
15.1,-7.8515,-38830,-56
15.105,-7.9409,-38843,-31
15.11,-8.0298,-38856,-31
15.115,-8.1183,-38869,-31
15.12,-8.2062,-38883,-56
15.125,-8.2935,-38896,-56
15.13,-8.3803,-38909,-56
15.135,-8.4666,-38923,-56
15.14,-8.5522,-38937,-31
15.145,-8.6371,-38950,-31
15.15,-8.7215,-38964,-31
15.155,-8.8051,-38977,-15
15.16,-8.8881,-38991,-15
15.165,-8.9703,-39005,-15
15.17,-9.0519,-39019,-15
15.175,-9.1326,-39033,-31
15.18,-9.2126,-39047,-31
15.185,-9.2918,-39061,-31
15.19,-9.3702,-39075,-15
15.195,-9.4477,-39089,-15
15.2,-9.5245,-39103,-15
15.205,-9.6003,-39118,-15
15.21,-9.6752,-39132,-31
15.215,-9.7493,-39146,-31
15.22,-9.8224,-39161,-31
15.225,-9.8946,-39175,-31
15.23,-9.9658,-39189,-24
15.235,-10.036,-39204,-24
15.24,-10.105,-39219,-24
15.245,-10.173,-39233,-31
15.25,-10.241,-39247,-31
15.255,-10.307,-39262,-31
15.26,-10.372,-39277,-31
15.265,-10.436,-39291,-31
15.27,-10.499,-39306,-31
15.275,-10.561,-39321,-31
15.28,-10.621,-39335,-24
15.285,-10.681,-39350,-24
15.29,-10.739,-39365,-24
15.295,-10.796,-39380,-24
15.3,-10.852,-39395,-15
15.305,-10.907,-39410,-15
15.31,-10.961,-39425,-15
15.315,-11.013,-39440,-28
15.32,-11.064,-39455,-28
15.325,-11.114,-39469,-28
15.33,-11.163,-39485,-28
15.335,-11.21,-39500,-28
15.34,-11.256,-39515,-28
15.345,-11.301,-39530,-28
15.35,-11.345,-39545,-28
15.355,-11.387,-39560,-28
15.36,-11.428,-39575,-28
15.365,-11.467,-39591,-28
15.37,-11.505,-39606,-24
15.375,-11.542,-39621,-24
15.38,-11.578,-39636,-24
15.385,-11.612,-39651,-24
15.39,-11.644,-39667,-24
15.395,-11.676,-39682,-24
15.4,-11.705,-39697,-24
15.405,-11.734,-39713,-17
15.41,-11.761,-39728,-17
15.415,-11.787,-39743,-17
15.42,-11.811,-39759,-17
15.425,-11.834,-39774,-24
15.43,-11.855,-39790,-24
15.435,-11.875,-39805,-24
15.44,-11.893,-39821,-24
15.445,-11.91,-39836,-24
15.45,-11.926,-39852,-24
15.455,-11.94,-39867,-24
15.46,-11.952,-39883,-24
15.465,-11.963,-39899,-24
15.47,-11.973,-39914,-24
15.475,-11.981,-39930,-15
15.48,-11.988,-39945,-15
15.485,-11.993,-39961,-15
15.49,-11.997,-39977,-15
15.495,-11.999,-39992,-15
15.5,-12,-40008,-15
15.505,-11.999,-40024,-15
15.51,-11.997,-40040,-15
15.515,-11.993,-40055,-15
15.52,-11.988,-40071,-15
15.525,-11.982,-40087,-15
15.53,-11.974,-40103,-15
15.535,-11.964,-40119,-15
15.54,-11.953,-40134,-15
15.545,-11.941,-40150,-15
15.55,-11.927,-40166,-15
15.555,-11.911,-40182,-15
15.56,-11.894,-40198,-15
15.565,-11.876,-40214,-15
15.57,-11.856,-40230,-15
15.575,-11.835,-40246,-15
15.58,-11.812,-40261,-15
15.585,-11.788,-40277,-15
15.59,-11.763,-40293,-15
15.595,-11.736,-40309,-15
15.6,-11.707,-40325,-15
15.605,-11.677,-40341,-15
15.61,-11.646,-40357,-15
15.615,-11.614,-40373,-15
15.62,-11.58,-40389,-3
15.625,-11.544,-40405,-3
15.63,-11.508,-40421,-3
15.635,-11.47,-40437,-15
15.64,-11.43,-40453,-15
15.645,-11.389,-40469,-15
15.65,-11.347,-40485,-15
15.655,-11.304,-40501,-15
15.66,-11.259,-40517,-15
15.665,-11.213,-40533,-15
15.67,-11.166,-40549,-24
15.675,-11.117,-40565,-24
15.68,-11.067,-40581,-24
15.685,-11.016,-40597,-24
15.69,-10.964,-40613,-15
15.695,-10.911,-40629,-15
15.7,-10.856,-40645,-15
15.705,-10.8,-40661,-15
15.71,-10.743,-40677,-15
15.715,-10.684,-40693,-15
15.72,-10.625,-40709,-15
15.725,-10.564,-40725,-15
15.73,-10.503,-40741,-15
15.735,-10.44,-40757,-15
15.74,-10.376,-40773,-7
15.745,-10.311,-40788,-7
15.75,-10.245,-40804,-7
15.755,-10.178,-40820,-7
15.76,-10.109,-40836,-15
15.765,-10.04,-40852,-15
15.77,-9.97,-40868,-15
15.775,-9.8989,-40884,-15
15.78,-9.8267,-40900,-14
15.785,-9.7537,-40916,-14
15.79,-9.6797,-40932,-14
15.795,-9.6048,-40947,-24
15.8,-9.529,-40963,-24
15.805,-9.4524,-40979,-24
15.81,-9.3749,-40995,-24
15.815,-9.2965,-41011,-15
15.82,-9.2174,-41027,-15
15.825,-9.1374,-41043,-15
15.83,-9.0567,-41059,-15
15.835,-8.9752,-41074,-15
15.84,-8.893,-41090,-15
15.845,-8.8101,-41106,-15
15.85,-8.7265,-41122,-15
15.855,-8.6422,-41138,-15
15.86,-8.5573,-41154,-15
15.865,-8.4717,-41169,-3
15.87,-8.3855,-41185,-3
15.875,-8.2988,-41201,-3
15.88,-8.2114,-41217,-3
15.885,-8.1235,-41233,-15
15.89,-8.0351,-41248,-15
15.895,-7.9462,-41264,-15
15.9,-7.8568,-41280,-7
15.905,-7.767,-41295,-7
15.91,-7.6767,-41311,-7
15.915,-7.586,-41327,-7
15.92,-7.4949,-41343,-24
15.925,-7.4035,-41358,-24
15.93,-7.3117,-41374,-24
15.935,-7.2195,-41390,-15
15.94,-7.1271,-41405,-15
15.945,-7.0344,-41421,-15
15.95,-6.9415,-41437,-15
15.955,-6.8483,-41452,-24
15.96,-6.7549,-41468,-24
15.965,-6.6613,-41483,-24
15.97,-6.5675,-41499,-24
15.975,-6.4736,-41514,-15
15.98,-6.3796,-41530,-15
15.985,-6.2855,-41545,-15
15.99,-6.1913,-41561,-24
15.995,-6.0971,-41577,-24
16,-6.0029,-41592,-24
16.005,-5.9087,-41607,-24
16.01,-5.8145,-41623,-15
16.015,-5.7203,-41638,-15
16.02,-5.6262,-41654,-15
16.025,-5.5322,-41669,-24
16.03,-5.4383,-41684,-24
16.035,-5.3446,-41700,-24
16.04,-5.251,-41715,-24
16.045,-5.1576,-41730,-24
16.05,-5.0644,-41746,-24
16.055,-4.9715,-41761,-24
16.06,-4.8788,-41776,-15
16.065,-4.7864,-41791,-15
16.07,-4.6942,-41807,-15
16.075,-4.6024,-41822,-15
16.08,-4.511,-41837,-14
16.085,-4.4199,-41852,-14
16.09,-4.3292,-41867,-14
16.095,-4.2389,-41882,-1
16.1,-4.149,-41897,-1
16.105,-4.0596,-41912,-1
16.11,-3.9707,-41927,-1
16.115,-3.8823,-41942,-24
16.12,-3.7944,-41957,-24
16.125,-3.707,-41972,-24
16.13,-3.6202,-41987,-24
16.135,-3.534,-42002,-24
16.14,-3.4484,-42017,-24
16.145,-3.3635,-42031,-24
16.15,-3.2791,-42046,-24
16.155,-3.1955,-42061,-24
16.16,-3.1125,-42076,-24
16.165,-3.0303,-42090,-24
16.17,-2.9488,-42105,-15
16.175,-2.868,-42119,-15
16.18,-2.788,-42134,-15
16.185,-2.7089,-42149,-28
16.19,-2.6305,-42163,-28
16.195,-2.5529,-42178,-28
16.2,-2.4762,-42192,-28
16.205,-2.4004,-42207,-28
16.21,-2.3255,-42221,-28
16.215,-2.2514,-42235,-28
16.22,-2.1783,-42250,-24
16.225,-2.1062,-42264,-24
16.23,-2.0349,-42278,-24
16.235,-1.9647,-42292,-24
16.24,-1.8955,-42307,-28
16.245,-1.8273,-42321,-28
16.25,-1.7601,-42335,-28
16.255,-1.6939,-42349,-24
16.26,-1.6288,-42363,-24
16.265,-1.5648,-42377,-24
16.27,-1.5019,-42391,-24
16.275,-1.4401,-42405,-24
16.28,-1.3794,-42418,-24
16.285,-1.3199,-42432,-24
16.29,-1.2615,-42446,-24
16.295,-1.2043,-42460,-24
16.3,-1.1483,-42473,-24
16.305,-1.0934,-42487,-24
16.31,-1.0398,-42501,-24
16.315,-0.98739,-42514,-24
16.32,-0.93622,-42528,-24
16.325,-0.8863,-42541,-15
16.33,-0.83765,-42555,-15
16.335,-0.79026,-42568,-15
16.34,-0.74416,-42581,-15
16.345,-0.69936,-42595,-15
16.35,-0.65586,-42608,-15
16.355,-0.61369,-42621,-15
16.36,-0.57284,-42634,-15
16.365,-0.53333,-42647,-15
16.37,-0.49516,-42660,-15
16.375,-0.45837,-42673,-15
16.38,-0.42293,-42686,-7
16.385,-0.38887,-42699,-7
16.39,-0.35619,-42712,-7
16.395,-0.3249,-42725,-7
16.4,-0.29502,-42737,0
16.405,-0.26654,-42750,0
16.41,-0.23947,-42763,0
16.415,-0.21383,-42775,-7
16.42,-0.18961,-42788,-7
16.425,-0.16683,-42800,-7
16.43,-0.14548,-42813,-7
16.435,-0.12558,-42825,-3
16.44,-0.10713,-42837,-3
16.445,-0.090126,-42850,-3
16.45,-0.074584,-42862,-3
16.455,-0.060507,-42874,-3
16.46,-0.047892,-42886,-3
16.465,-0.036744,-42898,-3
16.47,-0.027068,-42910,-1
16.475,-0.018864,-42922,-1
16.48,-0.012135,-42934,-1
16.485,-0.0068841,-42946,0
16.49,-0.0031109,-42958,0
16.495,-0.00081635,-42970,0
16.5,-1.9073e-06,-42981,0
16.505,-0.00066757,-42993,1
16.51,-0.0028124,-43005,1
16.515,-0.0064363,-43016,1
16.52,-0.011539,-43028,0
16.525,-0.018118,-43039,0
16.53,-0.026174,-43051,0
16.535,-0.0357,-43062,0
16.54,-0.046699,-43073,-1
16.545,-0.059166,-43085,-1
16.55,-0.073098,-43096,-1
16.555,-0.088493,-43107,-1
16.56,-0.10535,-43118,-3
16.565,-0.12365,-43129,-3
16.57,-0.14341,-43140,-3
16.575,-0.16461,-43151,-3
16.58,-0.18725,-43162,-3
16.585,-0.21132,-43173,-3
16.59,-0.23682,-43184,-3
16.595,-0.26375,-43195,-7
16.6,-0.29208,-43206,-7
16.605,-0.32183,-43216,-7
16.61,-0.35297,-43227,-7
16.615,-0.3855,-43238,-7
16.62,-0.41943,-43248,-7
16.625,-0.45473,-43259,-7
16.63,-0.49139,-43269,-15
16.635,-0.52942,-43280,-15
16.64,-0.56879,-43290,-15
16.645,-0.60951,-43301,-24
16.65,-0.65155,-43311,-24
16.655,-0.69492,-43321,-24
16.66,-0.73959,-43331,-24
16.665,-0.78556,-43342,-28
16.67,-0.83281,-43352,-28
16.675,-0.88134,-43362,-28
16.68,-0.93114,-43372,-30
16.685,-0.98218,-43382,-30
16.69,-1.0344,-43392,-30
16.695,-1.0879,-43402,-30
16.7,-1.1427,-43412,-35
16.705,-1.1986,-43422,-35
16.71,-1.2557,-43432,-35
16.715,-1.3139,-43441,-44
16.72,-1.3734,-43451,-44
16.725,-1.4339,-43461,-44
16.73,-1.4956,-43471,-44
16.735,-1.5584,-43481,-48
16.74,-1.6223,-43491,-48
16.745,-1.6873,-43500,-48
16.75,-1.7533,-43510,-48
16.755,-1.8204,-43519,-56
16.76,-1.8886,-43529,-56
16.765,-1.9577,-43539,-56
16.77,-2.0278,-43548,-48
16.775,-2.0989,-43558,-48
16.78,-2.171,-43568,-48
16.785,-2.244,-43577,-48
16.79,-2.318,-43587,-63
16.795,-2.3928,-43597,-63
16.8,-2.4685,-43606,-63
16.805,-2.5452,-43616,-63
16.81,-2.6226,-43625,-63
16.815,-2.7009,-43635,-63
16.82,-2.78,-43645,-63
16.825,-2.8599,-43655,-63
16.83,-2.9406,-43664,-63
16.835,-3.022,-43674,-63
16.84,-3.1042,-43684,-79
16.845,-3.1871,-43693,-79
16.85,-3.2707,-43703,-79
16.855,-3.3549,-43713,-79
16.86,-3.4398,-43723,-71
16.865,-3.5253,-43733,-71
16.87,-3.6115,-43743,-71
16.875,-3.6982,-43753,-79
16.88,-3.7855,-43763,-79
16.885,-3.8734,-43773,-79
16.89,-3.9617,-43783,-79
16.895,-4.0506,-43793,-71
16.9,-4.14,-43804,-71
16.905,-4.2298,-43814,-71
16.91,-4.32,-43824,-71
16.915,-4.4107,-43835,-71
16.92,-4.5017,-43845,-71
16.925,-4.5932,-43856,-71
16.93,-4.6849,-43866,-79
16.935,-4.777,-43877,-79
16.94,-4.8694,-43888,-79
16.945,-4.9621,-43898,-79
16.95,-5.055,-43909,-79
16.955,-5.1482,-43920,-79
16.96,-5.2416,-43931,-79
16.965,-5.3352,-43942,-71
16.97,-5.4289,-43953,-71
16.975,-5.5228,-43965,-71
16.98,-5.6167,-43976,-71
16.985,-5.7108,-43987,-63
16.99,-5.805,-43999,-63
16.995,-5.8992,-44010,-63
17,-5.9934,-44022,-63
17.005,-6.0876,-44033,-63
17.01,-6.1818,-44045,-63
17.015,-6.276,-44057,-63
17.02,-6.3701,-44069,-63
17.025,-6.4641,-44081,-63
17.03,-6.558,-44093,-63
17.035,-6.6517,-44105,-60
17.04,-6.7453,-44117,-60
17.045,-6.8387,-44129,-60
17.05,-6.9319,-44142,-60
17.055,-7.0249,-44154,-56
17.06,-7.1176,-44167,-56
17.065,-7.21,-44179,-56
17.07,-7.3022,-44192,-60
17.075,-7.394,-44205,-60
17.08,-7.4854,-44218,-60
17.085,-7.5765,-44231,-60
17.09,-7.6673,-44244,-56
17.095,-7.7576,-44257,-56
17.1,-7.8475,-44270,-56
17.105,-7.9369,-44283,-48
17.11,-8.0258,-44296,-48
17.115,-8.1143,-44310,-48
17.12,-8.2022,-44323,-48
17.125,-8.2896,-44337,-48
17.13,-8.3764,-44350,-48
17.135,-8.4626,-44364,-48
17.14,-8.5482,-44377,-48
17.145,-8.6332,-44391,-39
17.15,-8.7176,-44405,-39
17.155,-8.8012,-44419,-39
17.16,-8.8842,-44433,-31
17.165,-8.9665,-44447,-31
17.17,-9.048,-44461,-31
17.175,-9.1288,-44475,-31
17.18,-9.2088,-44489,-15
17.185,-9.288,-44503,-15
17.19,-9.3664,-44517,-15
17.195,-9.444,-44531,-31
17.2,-9.5208,-44546,-31
17.205,-9.5966,-44560,-31
17.21,-9.6716,-44574,-31
17.215,-9.7457,-44589,-31
17.22,-9.8188,-44603,-31
17.225,-9.891,-44617,-31
17.23,-9.9623,-44632,-30
17.235,-10.033,-44647,-30
17.24,-10.102,-44661,-30
17.245,-10.17,-44676,-30
17.25,-10.237,-44690,-35
17.255,-10.303,-44705,-35
17.26,-10.369,-44719,-35
17.265,-10.433,-44734,-24
17.27,-10.496,-44749,-24
17.275,-10.557,-44764,-24
17.28,-10.618,-44779,-24
17.285,-10.678,-44793,-14
17.29,-10.736,-44808,-14
17.295,-10.793,-44823,-14
17.3,-10.85,-44838,-30
17.305,-10.904,-44853,-30
17.31,-10.958,-44868,-30
17.315,-11.011,-44883,-30
17.32,-11.062,-44898,-24
17.325,-11.112,-44913,-24
17.33,-11.16,-44928,-24
17.335,-11.208,-44943,-24
17.34,-11.254,-44958,-28
17.345,-11.299,-44973,-28
17.35,-11.342,-44988,-28
17.355,-11.385,-45003,-24
17.36,-11.426,-45019,-24
17.365,-11.465,-45034,-24
17.37,-11.503,-45049,-24
17.375,-11.54,-45064,-24
17.38,-11.576,-45080,-24
17.385,-11.61,-45095,-24
17.39,-11.643,-45110,-24
17.395,-11.674,-45126,-24
17.4,-11.704,-45141,-24
17.405,-11.732,-45156,-24
17.41,-11.759,-45172,-15
17.415,-11.785,-45187,-15
17.42,-11.809,-45203,-15
17.425,-11.832,-45218,-15
17.43,-11.854,-45234,-15
17.435,-11.874,-45249,-15
17.44,-11.892,-45265,-15
17.445,-11.909,-45280,-15
17.45,-11.925,-45296,-15
17.455,-11.939,-45312,-15
17.46,-11.952,-45327,-15
17.465,-11.963,-45343,-15
17.47,-11.973,-45359,-15
17.475,-11.981,-45374,-15
17.48,-11.988,-45390,-15
17.485,-11.993,-45406,-15
17.49,-11.997,-45421,-15
17.495,-11.999,-45437,-15
17.5,-12,-45453,-15
17.505,-11.999,-45469,-15
17.51,-11.997,-45485,-15
17.515,-11.994,-45501,-15
17.52,-11.989,-45516,-15
17.525,-11.982,-45532,-15
17.53,-11.974,-45548,-15
17.535,-11.965,-45564,-15
17.54,-11.954,-45580,-15
17.545,-11.941,-45596,-15
17.55,-11.927,-45612,-15
17.555,-11.912,-45627,-15
17.56,-11.895,-45643,-15
17.565,-11.877,-45659,-15
17.57,-11.857,-45675,-15
17.575,-11.836,-45691,-15
17.58,-11.814,-45707,-15
17.585,-11.79,-45723,-1
17.59,-11.764,-45739,-1
17.595,-11.737,-45755,-1
17.6,-11.709,-45771,-1
17.605,-11.679,-45787,-15
17.61,-11.648,-45803,-15
17.615,-11.616,-45819,-15
17.62,-11.582,-45835,-7
17.625,-11.547,-45851,-7
17.63,-11.51,-45867,-7
17.635,-11.472,-45883,-7
17.64,-11.433,-45899,-15
17.645,-11.392,-45915,-15
17.65,-11.35,-45931,-15
17.655,-11.307,-45947,-14
17.66,-11.262,-45963,-14
17.665,-11.216,-45979,-14
17.67,-11.169,-45995,-14
17.675,-11.121,-46011,-15
17.68,-11.071,-46027,-15
17.685,-11.02,-46043,-15
17.69,-10.968,-46059,-15
17.695,-10.914,-46075,-15
17.7,-10.86,-46091,-15
17.705,-10.804,-46107,-15
17.71,-10.747,-46123,-7
17.715,-10.688,-46139,-7
17.72,-10.629,-46155,-7
17.725,-10.568,-46171,-7
17.73,-10.507,-46187,-15
17.735,-10.444,-46203,-15
17.74,-10.38,-46219,-15
17.745,-10.315,-46235,-15
17.75,-10.249,-46251,-15
17.755,-10.182,-46267,-15
17.76,-10.114,-46283,-15
17.765,-10.045,-46299,-15
17.77,-9.975,-46315,-15
17.775,-9.9039,-46331,-15
17.78,-9.8319,-46347,-15
17.785,-9.7589,-46363,-15
17.79,-9.685,-46379,-15
17.795,-9.6102,-46395,-15
17.8,-9.5345,-46411,-15
17.805,-9.4579,-46426,-15
17.81,-9.3805,-46442,-15
17.815,-9.3022,-46458,-15
17.82,-9.2231,-46474,-15
17.825,-9.1432,-46490,-15
17.83,-9.0626,-46506,-15
17.835,-8.9812,-46522,-3
17.84,-8.899,-46538,-3
17.845,-8.8162,-46553,-3
17.85,-8.7326,-46569,-15
17.855,-8.6484,-46585,-15
17.86,-8.5636,-46601,-15
17.865,-8.478,-46617,-15
17.87,-8.3919,-46633,-14
17.875,-8.3052,-46649,-14
17.88,-8.2179,-46664,-14
17.885,-8.1301,-46680,-14
17.89,-8.0418,-46696,-15
17.895,-7.9529,-46712,-15
17.9,-7.8636,-46727,-15
17.905,-7.7738,-46743,-15
17.91,-7.6835,-46759,-15
17.915,-7.5929,-46775,-15
17.92,-7.5018,-46790,-15
17.925,-7.4104,-46806,-19
17.93,-7.3187,-46822,-19
17.935,-7.2266,-46837,-19
17.94,-7.1342,-46853,-15
17.945,-7.0416,-46875,-15
17.95,-6.9486,-46891,-15
17.955,-6.8555,-46907,-15
17.96,-6.7621,-46922,-15
17.965,-6.6685,-46938,-15
17.97,-6.5748,-46953,-15
17.975,-6.481,-46969,-24
17.98,-6.387,-46985,-24
17.985,-6.2929,-47000,-24
17.99,-6.1987,-47015,-24
17.995,-6.1045,-47031,-24
18,-6.0103,-47047,-24
18.005,-5.9161,-47062,-24
18.01,-5.8219,-47077,-24
18.015,-5.7277,-47093,-24
18.02,-5.6336,-47108,-24
18.025,-5.5396,-47124,-24
18.03,-5.4458,-47139,-24
18.035,-5.352,-47155,-24
18.04,-5.2584,-47170,-24
18.045,-5.165,-47185,-15
18.05,-5.0718,-47201,-15
18.055,-4.9788,-47216,-15
18.06,-4.8861,-47231,-15
18.065,-4.7936,-47246,-24
18.07,-4.7015,-47262,-24
18.075,-4.6096,-47277,-24
18.08,-4.5181,-47292,-24
18.085,-4.427,-47307,-24
18.09,-4.3363,-47322,-24
18.095,-4.246,-47337,-24
18.1,-4.1561,-47352,-24
18.105,-4.0666,-47367,-24
18.11,-3.9777,-47383,-24
18.115,-3.8892,-47397,-15
18.12,-3.8013,-47412,-15
18.125,-3.7139,-47427,-15
18.13,-3.627,-47442,-15
18.135,-3.5408,-47457,-7
18.14,-3.4551,-47472,-7
18.145,-3.3701,-47487,-7
18.15,-3.2858,-47502,-24
18.155,-3.2021,-47516,-24
18.16,-3.119,-47531,-24
18.165,-3.0368,-47546,-24
18.17,-2.9552,-47561,-24
18.175,-2.8744,-47575,-24
18.18,-2.7943,-47590,-24
18.185,-2.7151,-47604,-28
18.19,-2.6366,-47619,-28
18.195,-2.559,-47633,-28
18.2,-2.4823,-47648,-28
18.205,-2.4064,-47662,-30
18.21,-2.3313,-47677,-30
18.215,-2.2572,-47691,-30
18.22,-2.184,-47705,-30
18.225,-2.1118,-47720,-24
18.23,-2.0405,-47734,-24
18.235,-1.9702,-47748,-24
18.24,-1.9009,-47762,-17
18.245,-1.8326,-47777,-17
18.25,-1.7653,-47791,-17
18.255,-1.6991,-47805,-17
18.26,-1.6339,-47819,-24
18.265,-1.5698,-47833,-24
18.27,-1.5068,-47847,-24
18.275,-1.4449,-47861,-24
18.28,-1.3842,-47874,-24
18.285,-1.3245,-47888,-24
18.29,-1.2661,-47902,-24
18.295,-1.2088,-47916,-28
18.3,-1.1526,-47930,-28
18.305,-1.0977,-47943,-28
18.31,-1.044,-47957,-15
18.315,-0.99148,-47971,-15
18.32,-0.94021,-47984,-15
18.325,-0.8902,-47997,-15
18.33,-0.84145,-48011,-15
18.335,-0.79396,-48024,-15
18.34,-0.74776,-48037,-15
18.345,-0.70285,-48051,-15
18.35,-0.65925,-48064,-15
18.355,-0.61697,-48077,-15
18.36,-0.57602,-48090,-15
18.365,-0.5364,-48104,-15
18.37,-0.49813,-48117,-15
18.375,-0.46122,-48130,-15
18.38,-0.42567,-48143,-12
18.385,-0.3915,-48155,-12
18.39,-0.35871,-48168,-12
18.395,-0.32732,-48181,-12
18.4,-0.29733,-48194,-7
18.405,-0.26874,-48206,-7
18.41,-0.24156,-48219,-7
18.415,-0.2158,-48232,-7
18.42,-0.19147,-48244,-7
18.425,-0.16857,-48257,-7
18.43,-0.14711,-48269,-7
18.435,-0.1271,-48282,-3
18.44,-0.10853,-48294,-3
18.445,-0.091416,-48306,-3
18.45,-0.075759,-48318,-3
18.455,-0.061563,-48331,-1
18.46,-0.048832,-48343,-1
18.465,-0.037569,-48355,-1
18.47,-0.027776,-48367,-1
18.475,-0.019456,-48379,-1
18.48,-0.012613,-48391,-1
18.485,-0.0072451,-48403,-1
18.49,-0.003355,-48415,0
18.495,-0.00094366,-48426,0
18.5,-1.2398e-05,-48438,0
18.505,-0.00056076,-48450,1
18.51,-0.0025887,-48461,1
18.515,-0.0060959,-48473,1
18.52,-0.011082,-48485,1
18.525,-0.017545,-48496,0
18.53,-0.025484,-48507,0
18.535,-0.034895,-48519,0
18.54,-0.045779,-48530,0
18.545,-0.058131,-48542,0
18.55,-0.071948,-48553,0
18.555,-0.087224,-48564,0
18.56,-0.10396,-48575,-1
18.565,-0.12215,-48586,-1
18.57,-0.14179,-48597,-1
18.575,-0.16288,-48609,-7
18.58,-0.18541,-48619,-7
18.585,-0.20937,-48631,-7
18.59,-0.23476,-48641,-7
18.595,-0.26157,-48652,-7
18.6,-0.28979,-48663,-7
18.605,-0.31943,-48674,-7
18.61,-0.35046,-48684,-7
18.615,-0.38289,-48695,-15
18.62,-0.4167,-48706,-15
18.625,-0.4519,-48716,-15
18.63,-0.48846,-48727,-15
18.635,-0.52637,-48737,-15
18.64,-0.56563,-48748,-15
18.645,-0.60624,-48758,-15
18.65,-0.64818,-48769,-24
18.655,-0.69144,-48779,-24
18.66,-0.73601,-48789,-24
18.665,-0.78188,-48799,-28
18.67,-0.82903,-48809,-28
18.675,-0.87746,-48819,-28
18.68,-0.92716,-48830,-28
18.685,-0.9781,-48840,-31
18.69,-1.0303,-48850,-31
18.695,-1.0837,-48860,-31
18.7,-1.1383,-48870,-31
18.705,-1.1941,-48879,-31
18.71,-1.2511,-48889,-31
18.715,-1.3093,-48899,-31
18.72,-1.3686,-48909,-44
18.725,-1.4291,-48919,-44
18.73,-1.4907,-48929,-44
18.735,-1.5534,-48939,-48
18.74,-1.6172,-48948,-48
18.745,-1.6821,-48958,-48
18.75,-1.7481,-48968,-48
18.755,-1.8151,-48977,-56
18.76,-1.8831,-48987,-56
18.765,-1.9522,-48997,-56
18.77,-2.0222,-49006,-60
18.775,-2.0933,-49016,-60
18.78,-2.1653,-49026,-60
18.785,-2.2382,-49035,-60
18.79,-2.3121,-49045,-60
18.795,-2.3869,-49055,-60
18.8,-2.4625,-49064,-60
18.805,-2.5391,-49074,-60
18.81,-2.6165,-49084,-71
18.815,-2.6947,-49093,-71
18.82,-2.7737,-49103,-71
18.825,-2.8536,-49113,-63
18.83,-2.9342,-49123,-63
18.835,-3.0156,-49132,-63
18.84,-3.0977,-49142,-63
18.845,-3.1805,-49152,-60
18.85,-3.264,-49162,-60
18.855,-3.3482,-49172,-60
18.86,-3.4331,-49182,-78
18.865,-3.5186,-49192,-78
18.87,-3.6047,-49202,-78
18.875,-3.6913,-49212,-78
18.88,-3.7786,-49222,-71
18.885,-3.8664,-49232,-71
18.89,-3.9547,-49242,-71
18.895,-4.0436,-49252,-71
18.9,-4.1329,-49263,-71
18.905,-4.2227,-49273,-71
18.91,-4.3129,-49283,-71
18.915,-4.4035,-49294,-79
18.92,-4.4945,-49304,-79
18.925,-4.5859,-49315,-79
18.93,-4.6777,-49325,-63
18.935,-4.7698,-49336,-63
18.94,-4.8621,-49347,-63
18.945,-4.9548,-49357,-63
18.95,-5.0477,-49368,-79
18.955,-5.1408,-49379,-79
18.96,-5.2342,-49390,-79
18.965,-5.3278,-49401,-63
18.97,-5.4215,-49413,-63
18.975,-5.5153,-49424,-63
18.98,-5.6093,-49435,-63
18.985,-5.7034,-49447,-60
18.99,-5.7975,-49458,-60
18.995,-5.8917,-49469,-60
19,-5.986,-49481,-60
19.005,-6.0802,-49493,-63
19.01,-6.1744,-49505,-63
19.015,-6.2686,-49516,-63
19.02,-6.3627,-49528,-63
19.025,-6.4566,-49540,-63
19.03,-6.5505,-49552,-63
19.035,-6.6443,-49564,-63
19.04,-6.7379,-49577,-60
19.045,-6.8313,-49589,-60
19.05,-6.9245,-49601,-60
19.055,-7.0175,-49614,-56
19.06,-7.1103,-49626,-56
19.065,-7.2027,-49639,-56
19.07,-7.2949,-49651,-56
19.075,-7.3867,-49664,-56
19.08,-7.4782,-49677,-56
19.085,-7.5694,-49690,-56
19.09,-7.6601,-49703,-56
19.095,-7.7505,-49716,-56
19.1,-7.8404,-49729,-56
19.105,-7.9298,-49742,-56
19.11,-8.0188,-49755,-39
19.115,-8.1073,-49768,-39
19.12,-8.1953,-49782,-39
19.125,-8.2827,-49795,-39
19.13,-8.3695,-49808,-39
19.135,-8.4558,-49822,-39
19.14,-8.5415,-49835,-39
19.145,-8.6265,-49849,-44
19.15,-8.7109,-49863,-44
19.155,-8.7946,-49877,-44
19.16,-8.8777,-49890,-28
19.165,-8.96,-49904,-28
19.17,-9.0416,-49918,-28
19.175,-9.1225,-49932,-28
19.18,-9.2025,-49946,-31
19.185,-9.2818,-49960,-31
19.19,-9.3603,-49974,-31
19.195,-9.4379,-49989,-31
19.2,-9.5147,-50003,-30
19.205,-9.5907,-50017,-30
19.21,-9.6657,-50031,-30
19.215,-9.7399,-50045,-31
19.22,-9.8131,-50060,-31
19.225,-9.8854,-50074,-31
19.23,-9.9567,-50089,-31
19.235,-10.027,-50103,-30
19.24,-10.096,-50118,-30
19.245,-10.165,-50132,-30
19.25,-10.232,-50147,-15
19.255,-10.298,-50161,-15
19.26,-10.364,-50176,-15
19.265,-10.428,-50191,-15
19.27,-10.491,-50205,-30
19.275,-10.553,-50220,-30
19.28,-10.613,-50235,-30
19.285,-10.673,-50250,-31
19.29,-10.732,-50264,-31
19.295,-10.789,-50279,-31
19.3,-10.845,-50294,-31
19.305,-10.9,-50309,-24
19.31,-10.954,-50324,-24
19.315,-11.006,-50339,-24
19.32,-11.058,-50354,-15
19.325,-11.108,-50369,-15
19.33,-11.157,-50384,-15
19.335,-11.204,-50399,-15
19.34,-11.25,-50414,-7
19.345,-11.295,-50429,-7
19.35,-11.339,-50444,-7
19.355,-11.381,-50460,-28
19.36,-11.422,-50475,-28
19.365,-11.462,-50490,-28
19.37,-11.5,-50505,-28
19.375,-11.537,-50520,-24
19.38,-11.573,-50536,-24
19.385,-11.607,-50551,-24
19.39,-11.64,-50566,-24
19.395,-11.671,-50582,-24
19.4,-11.702,-50597,-24
19.405,-11.73,-50613,-24
19.41,-11.757,-50628,-24
19.415,-11.783,-50643,-24
19.42,-11.808,-50659,-24
19.425,-11.831,-50674,-24
19.43,-11.852,-50690,-24
19.435,-11.872,-50705,-24
19.44,-11.891,-50721,-24
19.445,-11.908,-50736,-24
19.45,-11.924,-50752,-24
19.455,-11.938,-50767,-24
19.46,-11.951,-50783,-24
19.465,-11.962,-50799,-15
19.47,-11.972,-50814,-15
19.475,-11.98,-50830,-15
19.48,-11.987,-50846,-24
19.485,-11.993,-50861,-24
19.49,-11.997,-50877,-24
19.495,-11.999,-50893,-24
19.5,-12,-50909,-15
19.505,-11.999,-50924,-15
19.51,-11.998,-50940,-15
19.515,-11.994,-50956,-24
19.52,-11.989,-50972,-24
19.525,-11.983,-50987,-24
19.53,-11.975,-51003,-24
19.535,-11.966,-51019,-17
19.54,-11.955,-51035,-17
19.545,-11.942,-51051,-17
19.55,-11.929,-51067,-7
19.555,-11.913,-51083,-7
19.56,-11.897,-51099,-7
19.565,-11.879,-51115,-7
19.57,-11.859,-51130,-17
19.575,-11.838,-51146,-17
19.58,-11.816,-51162,-17
19.585,-11.792,-51178,-17
19.59,-11.766,-51194,-15
19.595,-11.74,-51210,-15
19.6,-11.711,-51226,-15
19.605,-11.682,-51242,-15
19.61,-11.651,-51258,-15
19.615,-11.618,-51274,-15
19.62,-11.585,-51290,-15
19.625,-11.55,-51306,-15
19.63,-11.513,-51322,-15
19.635,-11.475,-51338,-15
19.64,-11.436,-51354,-15
19.645,-11.395,-51370,-15
19.65,-11.353,-51386,-15
19.655,-11.31,-51402,-15
19.66,-11.266,-51418,-15
19.665,-11.22,-51434,-15
19.67,-11.173,-51450,-15
19.675,-11.124,-51466,-7
19.68,-11.075,-51482,-7
19.685,-11.024,-51497,-7
19.69,-10.972,-51513,-7
19.695,-10.918,-51529,-19
19.7,-10.864,-51545,-19
19.705,-10.808,-51561,-19
19.71,-10.751,-51577,-15
19.715,-10.693,-51593,-15
19.72,-10.634,-51609,-15
19.725,-10.573,-51625,-15
19.73,-10.512,-51641,-15
19.735,-10.449,-51657,-15
19.74,-10.385,-51673,-15
19.745,-10.32,-51689,-15
19.75,-10.255,-51705,-15
19.755,-10.188,-51721,-15
19.76,-10.12,-51737,-15
19.765,-10.051,-51753,-15
19.77,-9.9805,-51769,-15
19.775,-9.9095,-51785,-15
19.78,-9.8376,-51801,-15
19.785,-9.7647,-51816,-15
19.79,-9.6908,-51832,-15
19.795,-9.6161,-51848,-15
19.8,-9.5405,-51864,-7
19.805,-9.464,-51880,-7
19.81,-9.3866,-51896,-7
19.815,-9.3084,-51912,-7
19.82,-9.2294,-51928,-15
19.825,-9.1496,-51943,-15
19.83,-9.069,-51959,-15
19.835,-8.9876,-51975,-15
19.84,-8.9056,-51991,-15
19.845,-8.8228,-52007,-15
19.85,-8.7393,-52023,-15
19.855,-8.6551,-52038,-15
19.86,-8.5703,-52054,-15
19.865,-8.4848,-52070,-15
19.87,-8.3987,-52086,-15
19.875,-8.3121,-52102,-15
19.88,-8.2249,-52117,-15
19.885,-8.1371,-52133,-15
19.89,-8.0488,-52149,-24
19.895,-7.9599,-52165,-24
19.9,-7.8706,-52180,-24
19.905,-7.7809,-52196,-15
19.91,-7.6907,-52212,-15
19.915,-7.6001,-52227,-15
19.92,-7.5091,-52243,-15
19.925,-7.4177,-52259,-19
19.93,-7.3259,-52274,-19
19.935,-7.2339,-52290,-19
19.94,-7.1415,-52305,-24
19.945,-7.0489,-52321,-24
19.95,-6.956,-52337,-24
19.955,-6.8628,-52352,-24
19.96,-6.7695,-52368,-15
19.965,-6.6759,-52383,-15
19.97,-6.5822,-52399,-15
19.975,-6.4884,-52415,-15
19.98,-6.3944,-52430,-24
19.985,-6.3003,-52445,-24
19.99,-6.2062,-52461,-24
19.995,-6.112,-52477,-24
20,-6.0178,-52492,-24
